5/15/2013	10:11 AM
Pseudo Cross Correlation
Scattering angle:	30.0
Duration (s):	60
Wavelength (nm):	660.0
Refractive index:	1.400
Viscosity (mPas):	0.895
Temperature (K):	329.1
Laser intensity (mW):	71.045647
Average Count rate  A (kHz):	261.0
Average Count rate  B (kHz):	273.3
Intercept:	1.0000
Cumulant 1st	-Inf
Cumulant 2nd	-Inf	NaN
Cumulant 3rd	-Inf	NaN

Lag time (s)         g2-1
1.250000E-8	1.352061
2.500000E-8	1.350466
3.750000E-8	1.353806
5.000000E-8	1.347651
6.250000E-8	1.355157
7.500000E-8	1.348533
8.750000E-8	1.342923
1.000000E-7	1.354875
1.125000E-7	1.343805
1.250000E-7	1.352924
1.375000E-7	1.332227
1.500000E-7	1.349753
1.625000E-7	1.342679
1.750000E-7	1.338532
1.875000E-7	1.345325
2.000000E-7	1.330801
2.125000E-7	1.347689
2.250000E-7	1.339921
2.375000E-7	1.338757
2.500000E-7	1.342416
2.625000E-7	1.334686
2.750000E-7	1.334929
2.875000E-7	1.332040
3.000000E-7	1.334929
3.125000E-7	1.338213
3.250000E-7	1.337463
3.375000E-7	1.339470
3.500000E-7	1.323878
3.625000E-7	1.334348
3.750000E-7	1.335961
3.875000E-7	1.335680
4.000000E-7	1.332040
4.125000E-7	1.326617
4.250000E-7	1.323502
4.375000E-7	1.335455
4.500000E-7	1.325885
4.625000E-7	1.334573
4.750000E-7	1.335342
4.875000E-7	1.328719
5.000000E-7	1.328644
5.125000E-7	1.330595
5.250000E-7	1.330464
5.375000E-7	1.323915
5.500000E-7	1.331496
5.625000E-7	1.326580
5.750000E-7	1.337275
5.875000E-7	1.326373
6.000000E-7	1.332809
6.125000E-7	1.332640
6.250000E-7	1.324215
6.375000E-7	1.328081
6.500000E-7	1.323615
6.625000E-7	1.326486
6.750000E-7	1.334254
6.875000E-7	1.333916
7.000000E-7	1.316747
7.125000E-7	1.329113
7.250000E-7	1.325960
7.375000E-7	1.320969
7.500000E-7	1.337706
7.625000E-7	1.341459
7.750000E-7	1.320463
7.875000E-7	1.320387
8.000000E-7	1.322320
8.250000E-7	1.326617
8.500000E-7	1.332528
8.750000E-7	1.324703
9.000000E-7	1.317170
9.250000E-7	1.319421
9.500000E-7	1.313726
9.750000E-7	1.321879
1.000000E-6	1.324957
1.025000E-6	1.316569
1.050000E-6	1.314871
1.075000E-6	1.324178
1.100000E-6	1.308341
1.125000E-6	1.311981
1.150000E-6	1.323221
1.175000E-6	1.316522
1.200000E-6	1.317751
1.225000E-6	1.311109
1.250000E-6	1.322414
1.275000E-6	1.315790
1.300000E-6	1.317742
1.325000E-6	1.312976
1.350000E-6	1.315190
1.375000E-6	1.316926
1.400000E-6	1.301830
1.425000E-6	1.312253
1.450000E-6	1.306502
1.475000E-6	1.311944
1.500000E-6	1.315312
1.525000E-6	1.318305
1.550000E-6	1.310602
1.575000E-6	1.312404
1.600000E-6	1.317629
1.650000E-6	1.308163
1.700000E-6	1.310293
1.750000E-6	1.308580
1.800000E-6	1.314275
1.850000E-6	1.311479
1.900000E-6	1.312085
1.950000E-6	1.306244
2.000000E-6	1.302126
2.050000E-6	1.306821
2.100000E-6	1.306629
2.150000E-6	1.307084
2.200000E-6	1.302651
2.250000E-6	1.303964
2.300000E-6	1.304574
2.350000E-6	1.300132
2.400000E-6	1.299330
2.450000E-6	1.301938
2.500000E-6	1.294629
2.550000E-6	1.297810
2.600000E-6	1.303988
2.650000E-6	1.296295
2.700000E-6	1.299574
2.750000E-6	1.295413
2.800000E-6	1.292612
2.850000E-6	1.295671
2.900000E-6	1.294503
2.950000E-6	1.290173
3.000000E-6	1.294752
3.050000E-6	1.295099
3.100000E-6	1.289394
3.150000E-6	1.288850
3.200000E-6	1.293199
3.300000E-6	1.285855
3.400000E-6	1.283085
3.500000E-6	1.287394
3.600000E-6	1.285684
3.700000E-6	1.285492
3.800000E-6	1.280421
3.900000E-6	1.283418
4.000000E-6	1.285635
4.100000E-6	1.279417
4.200000E-6	1.283336
4.300000E-6	1.280085
4.400000E-6	1.280055
4.500000E-6	1.278579
4.600000E-6	1.276637
4.700000E-6	1.277367
4.800000E-6	1.276433
4.900000E-6	1.272024
5.000000E-6	1.274006
5.100000E-6	1.273239
5.200000E-6	1.270872
5.300000E-6	1.270094
5.400000E-6	1.273107
5.500000E-6	1.272988
5.600000E-6	1.269289
5.700000E-6	1.271126
5.800000E-6	1.272251
5.900000E-6	1.262461
6.000000E-6	1.266463
6.100000E-6	1.263484
6.200000E-6	1.263641
6.300000E-6	1.263353
6.400000E-6	1.259091
6.600000E-6	1.257935
6.800000E-6	1.256987
7.000000E-6	1.253131
7.200000E-6	1.252494
7.400000E-6	1.254290
7.600000E-6	1.250444
7.800000E-6	1.248539
8.000000E-6	1.250713
8.200000E-6	1.249310
8.400000E-6	1.243885
8.600000E-6	1.245393
8.800000E-6	1.244312
9.000000E-6	1.242569
9.200000E-6	1.240283
9.400000E-6	1.239158
9.600000E-6	1.238196
9.800000E-6	1.236870
1.000000E-5	1.234989
1.020000E-5	1.233752
1.040000E-5	1.234917
1.060000E-5	1.233092
1.080000E-5	1.229731
1.100000E-5	1.226404
1.120000E-5	1.226823
1.140000E-5	1.228149
1.160000E-5	1.223449
1.180000E-5	1.226292
1.200000E-5	1.221089
1.220000E-5	1.222088
1.240000E-5	1.220480
1.260000E-5	1.220763
1.280000E-5	1.219587
1.320000E-5	1.213762
1.360000E-5	1.214580
1.400000E-5	1.212478
1.440000E-5	1.210817
1.480000E-5	1.209485
1.520000E-5	1.206564
1.560000E-5	1.204563
1.600000E-5	1.201896
1.640000E-5	1.200848
1.680000E-5	1.199260
1.720000E-5	1.198672
1.760000E-5	1.197576
1.800000E-5	1.194511
1.840000E-5	1.193280
1.880000E-5	1.192768
1.920000E-5	1.191037
1.960000E-5	1.189158
2.000000E-5	1.186562
2.040000E-5	1.185247
2.080000E-5	1.186309
2.120000E-5	1.184282
2.160000E-5	1.181745
2.200000E-5	1.180115
2.240000E-5	1.180288
2.280000E-5	1.177305
2.320000E-5	1.174874
2.360000E-5	1.175756
2.400000E-5	1.173995
2.440000E-5	1.172727
2.480000E-5	1.171720
2.520000E-5	1.172613
2.560000E-5	1.169515
2.640000E-5	1.166128
2.720000E-5	1.164371
2.800000E-5	1.161729
2.880000E-5	1.161487
2.960000E-5	1.158990
3.040000E-5	1.156016
3.120000E-5	1.154102
3.200000E-5	1.153516
3.280000E-5	1.151541
3.360000E-5	1.149909
3.440000E-5	1.148285
3.520000E-5	1.147338
3.600000E-5	1.147131
3.680000E-5	1.143272
3.760000E-5	1.143078
3.840000E-5	1.142139
3.920000E-5	1.139897
4.000000E-5	1.139009
4.080000E-5	1.138214
4.160000E-5	1.135758
4.240000E-5	1.136958
4.320000E-5	1.135319
4.400000E-5	1.134387
4.480000E-5	1.132482
4.560000E-5	1.130883
4.640000E-5	1.131029
4.720000E-5	1.130031
4.800000E-5	1.129797
4.880000E-5	1.127658
4.960000E-5	1.126441
5.040000E-5	1.126987
5.120000E-5	1.125238
5.280000E-5	1.123499
5.440000E-5	1.122500
5.600000E-5	1.121225
5.760000E-5	1.120591
5.920000E-5	1.118936
6.080000E-5	1.117675
6.240000E-5	1.117163
6.400000E-5	1.114900
6.560000E-5	1.114704
6.720000E-5	1.113209
6.880000E-5	1.113048
7.040000E-5	1.113338
7.200000E-5	1.110533
7.360000E-5	1.110407
7.520000E-5	1.109301
7.680000E-5	1.108984
7.840000E-5	1.107858
8.000000E-5	1.106749
8.160000E-5	1.105928
8.320000E-5	1.105715
8.480000E-5	1.103864
8.640000E-5	1.103294
8.800000E-5	1.102880
8.960000E-5	1.102574
9.120000E-5	1.102840
9.280000E-5	1.101728
9.440000E-5	1.100607
9.600000E-5	1.099800
9.760000E-5	1.100077
9.920000E-5	1.099951
0.000101	1.099094
0.000102	1.098551
0.000106	1.097573
0.000109	1.097038
0.000112	1.096423
0.000115	1.094773
0.000118	1.094740
0.000122	1.094110
0.000125	1.092873
0.000128	1.091967
0.000131	1.091886
0.000134	1.090617
0.000138	1.090235
0.000141	1.089215
0.000144	1.088594
0.000147	1.087493
0.000150	1.086502
0.000154	1.085762
0.000157	1.085603
0.000160	1.085083
0.000163	1.083344
0.000166	1.081716
0.000170	1.081804
0.000173	1.080926
0.000176	1.080280
0.000179	1.079941
0.000182	1.078856
0.000186	1.078089
0.000189	1.077250
0.000192	1.076386
0.000195	1.075715
0.000198	1.074807
0.000202	1.073703
0.000205	1.073233
0.000211	1.071696
0.000218	1.070307
0.000224	1.068492
0.000230	1.067750
0.000237	1.066132
0.000243	1.064410
0.000250	1.063128
0.000256	1.061221
0.000262	1.060099
0.000269	1.058127
0.000275	1.056279
0.000282	1.055288
0.000288	1.053387
0.000294	1.051957
0.000301	1.051237
0.000307	1.049402
0.000314	1.047717
0.000320	1.046611
0.000326	1.045341
0.000333	1.043630
0.000339	1.042304
0.000346	1.040213
0.000352	1.039074
0.000358	1.037289
0.000365	1.035161
0.000371	1.033989
0.000378	1.032059
0.000384	1.031229
0.000390	1.029756
0.000397	1.028174
0.000403	1.026877
0.000410	1.024863
0.000422	1.021998
0.000435	1.018830
0.000448	1.015956
0.000461	1.012905
0.000474	1.009219
0.000486	1.006440
0.000499	1.003059
0.000512	0.999405
0.000525	0.996514
0.000538	0.993772
0.000550	0.990503
0.000563	0.987365
0.000576	0.984095
0.000589	0.981136
0.000602	0.978100
0.000614	0.974795
0.000627	0.970993
0.000640	0.967966
0.000653	0.965152
0.000666	0.962039
0.000678	0.958689
0.000691	0.955315
0.000704	0.952036
0.000717	0.948622
0.000730	0.945581
0.000742	0.942387
0.000755	0.939232
0.000768	0.936278
0.000781	0.932532
0.000794	0.929440
0.000806	0.926151
0.000819	0.923522
0.000845	0.917050
0.000870	0.910554
0.000896	0.903877
0.000922	0.896853
0.000947	0.890297
0.000973	0.884271
0.000998	0.877996
0.001024	0.871709
0.001050	0.865722
0.001075	0.859161
0.001101	0.852769
0.001126	0.846778
0.001152	0.840362
0.001178	0.834195
0.001203	0.828137
0.001229	0.822542
0.001254	0.816151
0.001280	0.810288
0.001306	0.804443
0.001331	0.798355
0.001357	0.792793
0.001382	0.786572
0.001408	0.781032
0.001434	0.776070
0.001459	0.769617
0.001485	0.763555
0.001510	0.757890
0.001536	0.753315
0.001562	0.747505
0.001587	0.742316
0.001613	0.737265
0.001638	0.732076
0.001690	0.721843
0.001741	0.712021
0.001792	0.702118
0.001843	0.692575
0.001894	0.683720
0.001946	0.674190
0.001997	0.665870
0.002048	0.657701
0.002099	0.650088
0.002150	0.642478
0.002202	0.635111
0.002253	0.627818
0.002304	0.621133
0.002355	0.614198
0.002406	0.608363
0.002458	0.601897
0.002509	0.596105
0.002560	0.590925
0.002611	0.585860
0.002662	0.580218
0.002714	0.575548
0.002765	0.570232
0.002816	0.565448
0.002867	0.561077
0.002918	0.556654
0.002970	0.552763
0.003021	0.549065
0.003072	0.545540
0.003123	0.542040
0.003174	0.538318
0.003226	0.534954
0.003277	0.531929
0.003379	0.526337
0.003482	0.521295
0.003584	0.516539
0.003686	0.512459
0.003789	0.508702
0.003891	0.505772
0.003994	0.502663
0.004096	0.499805
0.004198	0.497348
0.004301	0.495012
0.004403	0.493169
0.004506	0.491343
0.004608	0.489960
0.004710	0.488363
0.004813	0.487452
0.004915	0.485987
0.005018	0.485491
0.005120	0.484832
0.005222	0.483706
0.005325	0.483230
0.005427	0.482289
0.005530	0.482109
0.005632	0.481986
0.005734	0.481565
0.005837	0.481126
0.005939	0.480170
0.006042	0.479358
0.006144	0.478354
0.006246	0.477566
0.006349	0.476825
0.006451	0.475754
0.006554	0.475120
0.006758	0.473596
0.006963	0.472294
0.007168	0.470662
0.007373	0.469297
0.007578	0.467255
0.007782	0.466229
0.007987	0.465163
0.008192	0.464145
0.008397	0.463331
0.008602	0.462075
0.008806	0.460481
0.009011	0.459424
0.009216	0.457930
0.009421	0.456716
0.009626	0.456346
0.009830	0.456447
0.010035	0.456160
0.010240	0.456292
0.010445	0.456362
0.010650	0.456609
0.010854	0.457717
0.011059	0.458594
0.011264	0.459517
0.011469	0.460340
0.011674	0.460641
0.011878	0.461061
0.012083	0.461205
0.012288	0.461423
0.012493	0.460780
0.012698	0.459553
0.012902	0.457873
0.013107	0.456284
0.013517	0.454522
0.013926	0.451313
0.014336	0.447406
0.014746	0.442839
0.015155	0.438961
0.015565	0.434848
0.015974	0.430799
0.016384	0.427536
0.016794	0.425689
0.017203	0.425065
0.017613	0.425698
0.018022	0.427470
0.018432	0.428940
0.018842	0.429588
0.019251	0.429789
0.019661	0.429274
0.020070	0.426841
0.020480	0.424642
0.020890	0.421580
0.021299	0.418732
0.021709	0.416680
0.022118	0.416408
0.022528	0.416846
0.022938	0.416871
0.023347	0.416774
0.023757	0.416469
0.024166	0.416065
0.024576	0.414931
0.024986	0.413726
0.025395	0.411389
0.025805	0.408506
0.026214	0.406009
0.027034	0.401720
0.027853	0.399134
0.028672	0.397122
0.029491	0.394670
0.030310	0.395458
0.031130	0.399160
0.031949	0.401697
0.032768	0.400793
0.033587	0.398558
0.034406	0.397548
0.035226	0.398556
0.036045	0.398316
0.036864	0.400150
0.037683	0.401527
0.038502	0.402601
0.039322	0.400474
0.040141	0.395534
0.040960	0.391361
0.041779	0.389560
0.042598	0.389830
0.043418	0.390421
0.044237	0.389783
0.045056	0.386472
0.045875	0.380837
0.046694	0.376666
0.047514	0.376603
0.048333	0.378209
0.049152	0.379374
0.049971	0.378092
0.050790	0.375682
0.051610	0.371311
0.052429	0.365194
0.054067	0.356059
0.055706	0.350945
0.057344	0.349416
0.058982	0.351423
0.060621	0.351950
0.062259	0.349013
0.063898	0.349537
0.065536	0.352920
0.067174	0.345663
0.068813	0.334516
0.070451	0.327592
0.072090	0.325358
0.073728	0.323440
0.075366	0.322671
0.077005	0.326085
0.078643	0.325979
0.080282	0.320530
0.081920	0.315151
0.083558	0.309453
0.085197	0.307324
0.086835	0.308283
0.088474	0.304383
0.090112	0.301685
0.091750	0.298808
0.093389	0.292268
0.095027	0.287196
0.096666	0.283444
0.098304	0.279591
0.099942	0.279030
0.101581	0.277620
0.103219	0.271210
0.104858	0.266926
0.108134	0.259972
0.111411	0.260054
0.114688	0.254757
0.117965	0.236084
0.121242	0.230003
0.124518	0.230897
0.127795	0.223766
0.131072	0.221886
0.134349	0.220541
0.137626	0.215829
0.140902	0.213793
0.144179	0.211080
0.147456	0.197580
0.150733	0.195557
0.154010	0.194024
0.157286	0.184647
0.160563	0.170239
0.163840	0.168321
0.167117	0.160437
0.170394	0.166186
0.173670	0.160299
0.176947	0.153959
0.180224	0.149949
0.183501	0.146178
0.186778	0.139009
0.190054	0.133540
0.193331	0.133228
0.196608	0.125058
0.199885	0.118185
0.203162	0.118062
0.206438	0.113848
0.209715	0.110433
0.216269	0.105692
0.222822	0.105267
0.229376	0.095841
0.235930	0.085897
0.242483	0.084559
0.249037	0.068936
0.255590	0.067766
0.262144	0.068639
0.268698	0.060831
0.275251	0.061407
0.281805	0.051623
0.288358	0.052874
0.294912	0.055677
0.301466	0.050916
0.308019	0.048657
0.314573	0.045474
0.321126	0.043512
0.327680	0.046748
0.334234	0.040759
0.340787	0.039273
0.347341	0.036406
0.353894	0.036044
0.360448	0.037450
0.367002	0.036864
0.373555	0.039712
0.380109	0.040543
0.386662	0.041714
0.393216	0.040042
0.399770	0.039496
0.406323	0.039356
0.412877	0.042280
0.419430	0.039765
0.432538	0.035262
0.445645	0.035705
0.458752	0.042619
0.471859	0.035275
0.484966	0.034598
0.498074	0.030602
0.511181	0.029124
0.524288	0.032728
0.537395	0.032369
0.550502	0.031386
0.563610	0.030096
0.576717	0.033616
0.589824	0.037898
0.602931	0.039725
0.616038	0.039097
0.629146	0.037218
0.642253	0.031391
0.655360	0.025048
0.668467	0.026218
0.681574	0.031202
0.694682	0.029406
0.707789	0.023451
0.720896	0.020368
0.734003	0.016828
0.747110	0.017085
0.760218	0.020214
0.773325	0.012751
0.786432	0.007393
0.799539	0.003813
0.812646	0.004787
0.825754	0.000688
0.838861	0.001525
0.865075	0.001103
0.891290	0.002587
0.917504	0.005645
0.943718	0.005622
0.969933	0.011473
0.996147	0.015934
1.022362	0.014772
1.048576	0.017373
1.074790	0.023943
1.101005	0.026772
1.127219	0.030185
1.153434	0.037236
1.179648	0.034563
1.205862	0.035958
1.232077	0.029035
1.258291	0.028495
1.284506	0.015235
1.310720	0.014221
1.336934	0.009433
1.363149	0.005857
1.389363	-0.001702
1.415578	-0.006877
1.441792	-0.009657
1.468006	-0.009828
1.494221	-0.015356
1.520435	-0.015043
1.546650	-0.015562
1.572864	-0.012314
1.599078	-0.003356
1.625293	0.011373
1.651507	0.024001
1.677722	0.033789
1.730150	0.046971
1.782579	0.045484
1.835008	0.034699
1.887437	0.023178
1.939866	0.012815
1.992294	0.006787
2.044723	-0.005244
2.097152	-0.016668
2.149581	-0.023913
2.202010	-0.023764
2.254438	-0.012207
2.306867	-0.003063
2.359296	0.006419
2.411725	0.010037
2.464154	0.018625
2.516582	0.013431
2.569011	0.021804
2.621440	0.029490
2.673869	0.037033
2.726298	0.039711
2.778726	0.037625
2.831155	0.030415
2.883584	0.023572
2.936013	0.019414
2.988442	0.018908
3.040870	0.022201
3.093299	0.024297
3.145728	0.018109
3.198157	0.000383
3.250586	-0.009623
3.303015	-0.016629
3.355443	-0.011873
3.460301	0.003553
3.565158	0.016374
3.670016	0.025829
3.774873	0.031015
3.879731	0.030915
3.984589	0.020583
4.089447	0.016617
4.194304	0.026770
4.299161	0.040834
4.404019	0.025352
4.508877	0.014317
4.613734	0.005634
4.718592	0.016417
4.823450	0.012380
4.928307	-0.003288
5.033165	-0.023867
5.138022	-0.044325
5.242880	-0.049903
5.347738	-0.026709
5.452595	-0.008131
5.557453	-0.007590
5.662311	-0.010561
5.767168	-0.005393
5.872025	-0.004956
5.976883	0.000674
6.081741	0.005173
6.186598	0.008712
6.291456	0.006165
6.396314	-0.002438
6.501171	-0.001228
6.606029	0.012836
6.710886	0.044341
6.920601	0.009068
7.130317	-0.022182
7.340032	-0.009109
7.549747	-0.024196
7.759462	-0.021842
7.969178	-0.016720
8.178893	-0.014821
8.388608	-0.008261
8.598323	0.026136
8.808039	-0.015070
9.017754	-0.011397
9.227468	-0.024251
9.437184	-0.009406
9.646899	0.007832
9.856614	0.023305
10.066330	0.010415
10.276045	0.018866
10.485760	0.001417
10.695476	-0.001935
10.905190	-0.004465
11.114905	0.007706
11.324621	0.019325
11.534336	0.028008
11.744051	-0.006214
11.953767	-0.006948
12.163482	0.000746
12.373197	-0.001197
12.582912	0.012652
12.792627	0.047162
13.002342	0.031425
13.212058	0.005907
13.421773	-0.014927
13.841203	-0.036311
14.260633	-0.020530
14.680064	-0.018818
15.099494	-0.043215
15.518925	-0.002694
15.938355	0.010501
16.357786	0.002928
16.777216	0.000705
17.196646	0.011311
17.616077	-0.005914
18.035507	-0.046815
18.454937	-0.020578
18.874369	-0.036574
19.293798	-0.016377
19.713228	-0.020511
20.132660	0.011597
20.552090	-0.011699
20.971519	0.000125
21.390951	0.014854
21.810381	0.014713
22.229811	0.003622
22.649242	-0.043890
23.068672	-0.014336
23.488102	-0.033116
23.907534	-0.005645
24.326963	-0.035324
24.746393	-0.033394
25.165825	-0.015423
25.585255	0.010737
26.004684	0.034679
26.424116	-0.032017
26.843546	0.005136
27.682405	-0.004236
28.521267	0.012277
29.360128	-0.010783
30.198988	0.007959
31.037849	-0.019221
31.876711	-0.014290
32.715572	-0.048787
33.554432	-0.031547
34.393291	-0.048356
35.232155	-0.052576
36.071014	-0.056082
36.909874	-0.018549
37.748737	0.010201
38.587597	0.042507
39.426456	-0.032626
40.265320	-0.021471
41.104179	0.024057
41.943039	0.064829
42.781902	0.018807
43.620762	0.000844
44.459621	-0.034946
45.298485	-0.033142
46.137344	-0.003135
46.976204	0.003270
47.815067	0.007729
48.653927	0.019430
49.492786	0.029697
50.331650	0.034391
51.170509	7.026092E-5
52.009369	-0.025771
52.848232	0.002360
53.687092	0.051857
55.364811	-0.069214
57.042534	0.000000
58.720257	NaN
60.397976	NaN
62.075699	NaN
63.753422	NaN
65.431145	NaN
67.108864	NaN
68.786583	NaN
70.464310	NaN
72.142029	NaN
73.819748	NaN
75.497475	NaN
77.175194	NaN
78.852913	NaN
80.530640	NaN
82.208359	NaN
83.886078	NaN
85.563805	NaN
87.241524	NaN
88.919243	NaN
90.596970	NaN
92.274689	NaN
93.952408	NaN
95.630135	NaN
97.307854	NaN
98.985573	NaN
100.663300	NaN
102.341019	NaN
104.018738	NaN
105.696465	NaN
107.374184	NaN
110.729622	NaN
114.085068	NaN
117.440514	NaN
120.795952	NaN
124.151398	NaN
127.506844	NaN
130.862289	NaN
134.217728	NaN
137.573166	NaN
140.928619	NaN
144.284058	NaN
147.639496	NaN
150.994949	NaN
154.350388	NaN
157.705826	NaN
161.061279	NaN
164.416718	NaN
167.772156	NaN
171.127609	NaN
174.483047	NaN
177.838486	NaN
181.193939	NaN
184.549377	NaN
187.904816	NaN
191.260269	NaN
194.615707	NaN
197.971146	NaN
201.326599	NaN
204.682037	NaN
208.037476	NaN
211.392929	NaN
214.748367	NaN
221.459244	NaN
228.170135	NaN
234.881027	NaN
241.591904	NaN
248.302795	NaN
255.013687	NaN
261.724579	NaN
268.435455	NaN
275.146332	NaN
281.857239	NaN
288.568115	NaN
295.278992	NaN
301.989899	NaN
308.700775	NaN
315.411652	NaN
322.122559	NaN
328.833435	NaN
335.544312	NaN
342.255219	NaN
348.966095	NaN
355.676971	NaN
362.387878	NaN
369.098755	NaN
375.809631	NaN
382.520538	NaN
389.231415	NaN
395.942291	NaN
402.653198	NaN
409.364075	NaN
416.074951	NaN
422.785858	NaN
429.496735	NaN
442.918488	NaN
