5/15/2013	10:23 AM
Pseudo Cross Correlation
Scattering angle:	35.0
Duration (s):	60
Wavelength (nm):	660.0
Refractive index:	1.400
Viscosity (mPas):	0.895
Temperature (K):	329.1
Laser intensity (mW):	95.832746
Average Count rate  A (kHz):	281.2
Average Count rate  B (kHz):	293.5
Intercept:	1.0000
Cumulant 1st	-Inf
Cumulant 2nd	-Inf	NaN
Cumulant 3rd	-Inf	NaN

Lag time (s)         g2-1
1.250000E-8	1.314958
2.500000E-8	1.321800
3.750000E-8	1.314354
5.000000E-8	1.317930
6.250000E-8	1.311365
7.500000E-8	1.310287
8.750000E-8	1.317685
1.000000E-7	1.312819
1.125000E-7	1.300652
1.250000E-7	1.304800
1.375000E-7	1.315578
1.500000E-7	1.306744
1.625000E-7	1.301240
1.750000E-7	1.299460
1.875000E-7	1.302971
2.000000E-7	1.295116
2.125000E-7	1.306025
2.250000E-7	1.290495
2.375000E-7	1.294496
2.500000E-7	1.304964
2.625000E-7	1.291622
2.750000E-7	1.290495
2.875000E-7	1.292699
3.000000E-7	1.309406
3.125000E-7	1.308230
3.250000E-7	1.282738
3.375000E-7	1.289074
3.500000E-7	1.302089
3.625000E-7	1.291540
3.750000E-7	1.301273
3.875000E-7	1.290430
4.000000E-7	1.292895
4.125000E-7	1.295067
4.250000E-7	1.296456
4.375000E-7	1.279472
4.500000E-7	1.296423
4.625000E-7	1.290299
4.750000E-7	1.287898
4.875000E-7	1.281464
5.000000E-7	1.283750
5.125000E-7	1.273789
5.250000E-7	1.288503
5.375000E-7	1.292291
5.500000E-7	1.281791
5.625000E-7	1.283603
5.750000E-7	1.282281
5.875000E-7	1.290609
6.000000E-7	1.290658
6.125000E-7	1.282656
6.250000E-7	1.279243
6.375000E-7	1.283195
6.500000E-7	1.282166
6.625000E-7	1.287343
6.750000E-7	1.281954
6.875000E-7	1.278427
7.000000E-7	1.291801
7.125000E-7	1.277969
7.250000E-7	1.286559
7.375000E-7	1.276663
7.500000E-7	1.276843
7.625000E-7	1.278312
7.750000E-7	1.287784
7.875000E-7	1.277300
8.000000E-7	1.281627
8.250000E-7	1.281962
8.500000E-7	1.285865
8.750000E-7	1.279807
9.000000E-7	1.277765
9.250000E-7	1.278149
9.500000E-7	1.274989
9.750000E-7	1.278190
1.000000E-6	1.272637
1.025000E-6	1.276353
1.050000E-6	1.282125
1.075000E-6	1.276949
1.100000E-6	1.269878
1.125000E-6	1.270131
1.150000E-6	1.276802
1.175000E-6	1.278174
1.200000E-6	1.274809
1.225000E-6	1.262790
1.250000E-6	1.272915
1.275000E-6	1.268906
1.300000E-6	1.274230
1.325000E-6	1.272629
1.350000E-6	1.274434
1.375000E-6	1.272319
1.400000E-6	1.264146
1.425000E-6	1.262325
1.450000E-6	1.257426
1.475000E-6	1.268669
1.500000E-6	1.263027
1.525000E-6	1.262006
1.550000E-6	1.266930
1.575000E-6	1.256168
1.600000E-6	1.266309
1.650000E-6	1.260651
1.700000E-6	1.260161
1.750000E-6	1.258699
1.800000E-6	1.261206
1.850000E-6	1.256413
1.900000E-6	1.259038
1.950000E-6	1.261553
2.000000E-6	1.251151
2.050000E-6	1.253784
2.100000E-6	1.249799
2.150000E-6	1.253008
2.200000E-6	1.248313
2.250000E-6	1.254392
2.300000E-6	1.253282
2.350000E-6	1.250461
2.400000E-6	1.251294
2.450000E-6	1.253604
2.500000E-6	1.250963
2.550000E-6	1.248579
2.600000E-6	1.246350
2.650000E-6	1.244957
2.700000E-6	1.245933
2.750000E-6	1.238466
2.800000E-6	1.242883
2.850000E-6	1.241324
2.900000E-6	1.244851
2.950000E-6	1.242132
3.000000E-6	1.238821
3.050000E-6	1.243614
3.100000E-6	1.239740
3.150000E-6	1.235424
3.200000E-6	1.231922
3.300000E-6	1.236951
3.400000E-6	1.232520
3.500000E-6	1.232179
3.600000E-6	1.225845
3.700000E-6	1.229507
3.800000E-6	1.228063
3.900000E-6	1.225759
4.000000E-6	1.226945
4.100000E-6	1.226316
4.200000E-6	1.222566
4.300000E-6	1.221470
4.400000E-6	1.224830
4.500000E-6	1.220737
4.600000E-6	1.220745
4.700000E-6	1.216116
4.800000E-6	1.216414
4.900000E-6	1.218155
5.000000E-6	1.212247
5.100000E-6	1.211931
5.200000E-6	1.206922
5.300000E-6	1.206456
5.400000E-6	1.208808
5.500000E-6	1.204213
5.600000E-6	1.200930
5.700000E-6	1.205433
5.800000E-6	1.199042
5.900000E-6	1.203654
6.000000E-6	1.201065
6.100000E-6	1.201776
6.200000E-6	1.196209
6.300000E-6	1.192679
6.400000E-6	1.197707
6.600000E-6	1.195405
6.800000E-6	1.191437
7.000000E-6	1.192780
7.200000E-6	1.186618
7.400000E-6	1.185261
7.600000E-6	1.183815
7.800000E-6	1.181761
8.000000E-6	1.180069
8.200000E-6	1.179209
8.400000E-6	1.179334
8.600000E-6	1.173364
8.800000E-6	1.174105
9.000000E-6	1.170768
9.200000E-6	1.169631
9.400000E-6	1.167502
9.600000E-6	1.167496
9.800000E-6	1.166105
1.000000E-5	1.163853
1.020000E-5	1.161458
1.040000E-5	1.161373
1.060000E-5	1.158729
1.080000E-5	1.161945
1.100000E-5	1.156918
1.120000E-5	1.156958
1.140000E-5	1.153028
1.160000E-5	1.152442
1.180000E-5	1.150314
1.200000E-5	1.150462
1.220000E-5	1.146752
1.240000E-5	1.145064
1.260000E-5	1.144983
1.280000E-5	1.143526
1.320000E-5	1.140947
1.360000E-5	1.138434
1.400000E-5	1.134176
1.440000E-5	1.134739
1.480000E-5	1.129966
1.520000E-5	1.128193
1.560000E-5	1.127460
1.600000E-5	1.126119
1.640000E-5	1.121512
1.680000E-5	1.120514
1.720000E-5	1.118554
1.760000E-5	1.116962
1.800000E-5	1.115159
1.840000E-5	1.112097
1.880000E-5	1.112869
1.920000E-5	1.109496
1.960000E-5	1.106904
2.000000E-5	1.107522
2.040000E-5	1.104827
2.080000E-5	1.104107
2.120000E-5	1.100993
2.160000E-5	1.100335
2.200000E-5	1.098442
2.240000E-5	1.097752
2.280000E-5	1.095125
2.320000E-5	1.093486
2.360000E-5	1.094557
2.400000E-5	1.092508
2.440000E-5	1.091043
2.480000E-5	1.090581
2.520000E-5	1.088782
2.560000E-5	1.086750
2.640000E-5	1.083788
2.720000E-5	1.083305
2.800000E-5	1.080155
2.880000E-5	1.077952
2.960000E-5	1.075400
3.040000E-5	1.073588
3.120000E-5	1.072359
3.200000E-5	1.071457
3.280000E-5	1.070066
3.360000E-5	1.068074
3.440000E-5	1.067330
3.520000E-5	1.065571
3.600000E-5	1.064002
3.680000E-5	1.062756
3.760000E-5	1.060887
3.840000E-5	1.061479
3.920000E-5	1.059177
4.000000E-5	1.058805
4.080000E-5	1.058155
4.160000E-5	1.055638
4.240000E-5	1.054158
4.320000E-5	1.053566
4.400000E-5	1.053252
4.480000E-5	1.052964
4.560000E-5	1.052125
4.640000E-5	1.049452
4.720000E-5	1.049857
4.800000E-5	1.048179
4.880000E-5	1.049547
4.960000E-5	1.047747
5.040000E-5	1.048119
5.120000E-5	1.046200
5.280000E-5	1.044811
5.440000E-5	1.044222
5.600000E-5	1.043562
5.760000E-5	1.040901
5.920000E-5	1.039604
6.080000E-5	1.040245
6.240000E-5	1.039734
6.400000E-5	1.038132
6.560000E-5	1.037599
6.720000E-5	1.036461
6.880000E-5	1.036115
7.040000E-5	1.035243
7.200000E-5	1.032828
7.360000E-5	1.033649
7.520000E-5	1.032276
7.680000E-5	1.031811
7.840000E-5	1.030419
8.000000E-5	1.029408
8.160000E-5	1.030292
8.320000E-5	1.030202
8.480000E-5	1.028336
8.640000E-5	1.028436
8.800000E-5	1.027684
8.960000E-5	1.027380
9.120000E-5	1.026024
9.280000E-5	1.025900
9.440000E-5	1.025998
9.600000E-5	1.025607
9.760000E-5	1.024965
9.920000E-5	1.023874
0.000101	1.023108
0.000102	1.022906
0.000106	1.021590
0.000109	1.020514
0.000112	1.018836
0.000115	1.017675
0.000118	1.017061
0.000122	1.016353
0.000125	1.015078
0.000128	1.014331
0.000131	1.013200
0.000134	1.012444
0.000138	1.011667
0.000141	1.010765
0.000144	1.010459
0.000147	1.008992
0.000150	1.008023
0.000154	1.006482
0.000157	1.005326
0.000160	1.005395
0.000163	1.004211
0.000166	1.003220
0.000170	1.001153
0.000173	1.000519
0.000176	0.999166
0.000179	0.997619
0.000182	0.997702
0.000186	0.995892
0.000189	0.995278
0.000192	0.994262
0.000195	0.994063
0.000198	0.992759
0.000202	0.991903
0.000205	0.990962
0.000211	0.987629
0.000218	0.986085
0.000224	0.984177
0.000230	0.982391
0.000237	0.980298
0.000243	0.977847
0.000250	0.976239
0.000256	0.974241
0.000262	0.972598
0.000269	0.970650
0.000275	0.968082
0.000282	0.965901
0.000288	0.963934
0.000294	0.961925
0.000301	0.959561
0.000307	0.956953
0.000314	0.955403
0.000320	0.953316
0.000326	0.951052
0.000333	0.949445
0.000339	0.947219
0.000346	0.945696
0.000352	0.943329
0.000358	0.941210
0.000365	0.938905
0.000371	0.936634
0.000378	0.934845
0.000384	0.932697
0.000390	0.930063
0.000397	0.928366
0.000403	0.926134
0.000410	0.923675
0.000422	0.919371
0.000435	0.915123
0.000448	0.910579
0.000461	0.906119
0.000474	0.901754
0.000486	0.897229
0.000499	0.893051
0.000512	0.888461
0.000525	0.884629
0.000538	0.880499
0.000550	0.876439
0.000563	0.871716
0.000576	0.867122
0.000589	0.862620
0.000602	0.857675
0.000614	0.853697
0.000627	0.849489
0.000640	0.844888
0.000653	0.840551
0.000666	0.836235
0.000678	0.831950
0.000691	0.827714
0.000704	0.823427
0.000717	0.819052
0.000730	0.814627
0.000742	0.810537
0.000755	0.805720
0.000768	0.801514
0.000781	0.797126
0.000794	0.792767
0.000806	0.789078
0.000819	0.784346
0.000845	0.775844
0.000870	0.766939
0.000896	0.758661
0.000922	0.750432
0.000947	0.742450
0.000973	0.734829
0.000998	0.726544
0.001024	0.718242
0.001050	0.710213
0.001075	0.702597
0.001101	0.695175
0.001126	0.688442
0.001152	0.681278
0.001178	0.674008
0.001203	0.666754
0.001229	0.659741
0.001254	0.653433
0.001280	0.646829
0.001306	0.640001
0.001331	0.634172
0.001357	0.627446
0.001382	0.621712
0.001408	0.615497
0.001434	0.609646
0.001459	0.603621
0.001485	0.598342
0.001510	0.592782
0.001536	0.587307
0.001562	0.582035
0.001587	0.577216
0.001613	0.572130
0.001638	0.567087
0.001690	0.557591
0.001741	0.548807
0.001792	0.540066
0.001843	0.531840
0.001894	0.524342
0.001946	0.516875
0.001997	0.510227
0.002048	0.503892
0.002099	0.497836
0.002150	0.492142
0.002202	0.486947
0.002253	0.482634
0.002304	0.478298
0.002355	0.474517
0.002406	0.471176
0.002458	0.468101
0.002509	0.465089
0.002560	0.462395
0.002611	0.459649
0.002662	0.457389
0.002714	0.455714
0.002765	0.453739
0.002816	0.452189
0.002867	0.450381
0.002918	0.449207
0.002970	0.447690
0.003021	0.446670
0.003072	0.445551
0.003123	0.444691
0.003174	0.444061
0.003226	0.443661
0.003277	0.443179
0.003379	0.442301
0.003482	0.441660
0.003584	0.441363
0.003686	0.440566
0.003789	0.440164
0.003891	0.439643
0.003994	0.438755
0.004096	0.438113
0.004198	0.437451
0.004301	0.437158
0.004403	0.436917
0.004506	0.436285
0.004608	0.435990
0.004710	0.435753
0.004813	0.435211
0.004915	0.434907
0.005018	0.433988
0.005120	0.433612
0.005222	0.432656
0.005325	0.431648
0.005427	0.431106
0.005530	0.429804
0.005632	0.428774
0.005734	0.427993
0.005837	0.427298
0.005939	0.426069
0.006042	0.425180
0.006144	0.424005
0.006246	0.422926
0.006349	0.422289
0.006451	0.421476
0.006554	0.421310
0.006758	0.420601
0.006963	0.419718
0.007168	0.418599
0.007373	0.418215
0.007578	0.417851
0.007782	0.417229
0.007987	0.416357
0.008192	0.415036
0.008397	0.413914
0.008602	0.412522
0.008806	0.411077
0.009011	0.409937
0.009216	0.408130
0.009421	0.406257
0.009626	0.403801
0.009830	0.401255
0.010035	0.399238
0.010240	0.397202
0.010445	0.395746
0.010650	0.394626
0.010854	0.393369
0.011059	0.392294
0.011264	0.391283
0.011469	0.390709
0.011674	0.390035
0.011878	0.389306
0.012083	0.388938
0.012288	0.388990
0.012493	0.388675
0.012698	0.388336
0.012902	0.388000
0.013107	0.387877
0.013517	0.386389
0.013926	0.385864
0.014336	0.385214
0.014746	0.384196
0.015155	0.383436
0.015565	0.383176
0.015974	0.382565
0.016384	0.380547
0.016794	0.376266
0.017203	0.371752
0.017613	0.366991
0.018022	0.360883
0.018432	0.355960
0.018842	0.352191
0.019251	0.350476
0.019661	0.348812
0.020070	0.347410
0.020480	0.345020
0.020890	0.341368
0.021299	0.337642
0.021709	0.335241
0.022118	0.334681
0.022528	0.335324
0.022938	0.336348
0.023347	0.336935
0.023757	0.335745
0.024166	0.331715
0.024576	0.326313
0.024986	0.321631
0.025395	0.317969
0.025805	0.316355
0.026214	0.317140
0.027034	0.320089
0.027853	0.322466
0.028672	0.321329
0.029491	0.314549
0.030310	0.306959
0.031130	0.302355
0.031949	0.298892
0.032768	0.296808
0.033587	0.293972
0.034406	0.288065
0.035226	0.280329
0.036045	0.272871
0.036864	0.266475
0.037683	0.261602
0.038502	0.259260
0.039322	0.254305
0.040141	0.246509
0.040960	0.241185
0.041779	0.239523
0.042598	0.237771
0.043418	0.235588
0.044237	0.232982
0.045056	0.231159
0.045875	0.229222
0.046694	0.227708
0.047514	0.222755
0.048333	0.217139
0.049152	0.211649
0.049971	0.209304
0.050790	0.206507
0.051610	0.202808
0.052429	0.198082
0.054067	0.189586
0.055706	0.184578
0.057344	0.174755
0.058982	0.166860
0.060621	0.166045
0.062259	0.156616
0.063898	0.145745
0.065536	0.143733
0.067174	0.138541
0.068813	0.131962
0.070451	0.126903
0.072090	0.122801
0.073728	0.116675
0.075366	0.106778
0.077005	0.098391
0.078643	0.092541
0.080282	0.094871
0.081920	0.091726
0.083558	0.091908
0.085197	0.085228
0.086835	0.081669
0.088474	0.080317
0.090112	0.081154
0.091750	0.076215
0.093389	0.069479
0.095027	0.066987
0.096666	0.063872
0.098304	0.064712
0.099942	0.064860
0.101581	0.060941
0.103219	0.054574
0.104858	0.049557
0.108134	0.045084
0.111411	0.039274
0.114688	0.035394
0.117965	0.031180
0.121242	0.027697
0.124518	0.024766
0.127795	0.023566
0.131072	0.020773
0.134349	0.013373
0.137626	0.013229
0.140902	0.012787
0.144179	0.010409
0.147456	0.002391
0.150733	0.000525
0.154010	1.287492E-5
0.157286	-0.000835
0.160563	-0.006619
0.163840	-0.007375
0.167117	-0.009663
0.170394	-0.011453
0.173670	-0.015565
0.176947	-0.015091
0.180224	-0.016621
0.183501	-0.011212
0.186778	-0.012270
0.190054	-0.015090
0.193331	-0.015207
0.196608	-0.010217
0.199885	-0.007610
0.203162	-0.011047
0.206438	-0.009956
0.209715	-0.006742
0.216269	-0.008622
0.222822	-0.013620
0.229376	-0.007042
0.235930	-0.007209
0.242483	-0.002305
0.249037	0.002710
0.255590	-0.000346
0.262144	0.002920
0.268698	0.003582
0.275251	0.005326
0.281805	0.005453
0.288358	0.003338
0.294912	0.004582
0.301466	0.007749
0.308019	0.002756
0.314573	0.000694
0.321126	0.002430
0.327680	6.534372E-5
0.334234	-0.003821
0.340787	-0.000604
0.347341	-0.003697
0.353894	-0.003708
0.360448	-0.001761
0.367002	-0.003661
0.373555	-0.005852
0.380109	-0.004039
0.386662	-0.005254
0.393216	-0.002958
0.399770	-0.004724
0.406323	-0.008041
0.412877	-0.013368
0.419430	-0.018222
0.432538	-0.016668
0.445645	-0.020651
0.458752	-0.022375
0.471859	-0.020923
0.484966	-0.015787
0.498074	-0.017833
0.511181	-0.013800
0.524288	-0.013633
0.537395	-0.011531
0.550502	-0.004835
0.563610	0.003164
0.576717	0.008125
0.589824	0.008747
0.602931	0.010613
0.616038	0.010641
0.629146	0.011413
0.642253	0.009972
0.655360	0.005971
0.668467	0.007231
0.681574	0.002126
0.694682	0.001677
0.707789	-0.005270
0.720896	-0.008519
0.734003	-0.012236
0.747110	-0.014561
0.760218	-0.014530
0.773325	-0.015336
0.786432	-0.015591
0.799539	-0.008969
0.812646	-0.007394
0.825754	-0.002790
0.838861	-0.001875
0.865075	0.001503
0.891290	0.011868
0.917504	0.017818
0.943718	0.023225
0.969933	0.023562
0.996147	0.020453
1.022362	0.013900
1.048576	0.005395
1.074790	0.002824
1.101005	0.001813
1.127219	0.000750
1.153434	-0.004664
1.179648	-0.014037
1.205862	-0.015651
1.232077	-0.011396
1.258291	-0.003627
1.284506	0.004447
1.310720	0.008622
1.336934	-0.001289
1.363149	0.003364
1.389363	0.020573
1.415578	0.025186
1.441792	0.021921
1.468006	0.012390
1.494221	0.007617
1.520435	0.013945
1.546650	0.019576
1.572864	0.025284
1.599078	0.028536
1.625293	0.031856
1.651507	0.025142
1.677722	0.013826
1.730150	-0.010857
1.782579	-0.029252
1.835008	-0.026672
1.887437	-0.011617
1.939866	-0.013612
1.992294	-0.015822
2.044723	-0.012106
2.097152	-0.005773
2.149581	-0.003684
2.202010	0.007976
2.254438	0.026677
2.306867	0.046625
2.359296	0.019211
2.411725	-0.002462
2.464154	-0.016323
2.516582	-0.007303
2.569011	0.001403
2.621440	-0.005589
2.673869	-0.009346
2.726298	-0.021680
2.778726	-0.021133
2.831155	-0.002456
2.883584	0.028457
2.936013	0.029277
2.988442	0.016845
3.040870	0.005370
3.093299	-0.003123
3.145728	0.003395
3.198157	0.001878
3.250586	-0.010243
3.303015	-0.021166
3.355443	-0.013425
3.460301	-0.027907
3.565158	-0.008790
3.670016	0.005230
3.774873	0.014680
3.879731	0.030362
3.984589	0.017372
4.089447	-0.011209
4.194304	-0.005568
4.299161	0.006303
4.404019	-0.011150
4.508877	0.008984
4.613734	0.016610
4.718592	-0.013031
4.823450	-0.011448
4.928307	-0.019154
5.033165	-0.020333
5.138022	-0.006342
5.242880	0.010965
5.347738	0.006250
5.452595	0.008628
5.557453	-0.022362
5.662311	-0.015579
5.767168	-0.008276
5.872025	-0.011047
5.976883	-0.007185
6.081741	-0.007339
6.186598	0.009685
6.291456	0.019636
6.396314	0.003359
6.501171	-0.013384
6.606029	0.005365
6.710886	0.008406
6.920601	0.002689
7.130317	-0.002147
7.340032	-0.013671
7.549747	0.002212
7.759462	-0.004279
7.969178	-0.005633
8.178893	0.001452
8.388608	0.016495
8.598323	-0.011822
8.808039	-0.024537
9.017754	0.000389
9.227468	0.004910
9.437184	-0.001510
9.646899	-0.000492
9.856614	0.000496
10.066330	-0.009916
10.276045	-0.016585
10.485760	-0.002131
10.695476	0.028844
10.905190	0.011079
11.114905	-0.003842
11.324621	0.007610
11.534336	0.011078
11.744051	-0.003934
11.953767	-0.009974
12.163482	0.016545
12.373197	0.010380
12.582912	-0.015996
12.792627	0.002881
13.002342	0.007354
13.212058	-0.004807
13.421773	0.006101
13.841203	0.013407
14.260633	-0.003236
14.680064	0.003034
15.099494	0.017694
15.518925	-0.001145
15.938355	-0.002663
16.357786	0.007968
16.777216	0.001445
17.196646	-0.010419
17.616077	0.012089
18.035507	-0.014095
18.454937	-0.002291
18.874369	-0.000736
19.293798	-0.000286
19.713228	-0.011547
20.132660	-0.012505
20.552090	0.011972
20.971519	-0.027834
21.390951	-0.015653
21.810381	-0.012567
22.229811	-0.002727
22.649242	-0.020106
23.068672	0.000792
23.488102	-0.003686
23.907534	-0.004708
24.326963	0.007242
24.746393	0.006171
25.165825	0.002890
25.585255	-0.009048
26.004684	-0.002942
26.424116	-0.011881
26.843546	0.000437
27.682405	0.001517
28.521267	-0.004846
29.360128	0.008475
30.198988	0.010353
31.037849	0.001666
31.876711	-0.003723
32.715572	-0.018375
33.554432	-0.002660
34.393291	-0.005172
35.232155	0.005996
36.071014	-0.015588
36.909874	-0.001097
37.748737	0.006008
38.587597	0.012161
39.426456	-0.006290
40.265320	-0.008295
41.104179	0.008677
41.943039	0.007188
42.781902	-0.001482
43.620762	-0.003330
44.459621	0.001176
45.298485	-5.637205E-5
46.137344	0.005929
46.976204	-0.014245
47.815067	0.001677
48.653927	0.002426
49.492786	0.014946
50.331650	0.000567
51.170509	-0.031049
52.009369	0.007180
52.848232	0.002449
53.687092	0.032837
55.364811	0.000000
57.042534	NaN
58.720257	NaN
60.397976	NaN
62.075699	NaN
63.753422	NaN
65.431145	NaN
67.108864	NaN
68.786583	NaN
70.464310	NaN
72.142029	NaN
73.819748	NaN
75.497475	NaN
77.175194	NaN
78.852913	NaN
80.530640	NaN
82.208359	NaN
83.886078	NaN
85.563805	NaN
87.241524	NaN
88.919243	NaN
90.596970	NaN
92.274689	NaN
93.952408	NaN
95.630135	NaN
97.307854	NaN
98.985573	NaN
100.663300	NaN
102.341019	NaN
104.018738	NaN
105.696465	NaN
107.374184	NaN
110.729622	NaN
114.085068	NaN
117.440514	NaN
120.795952	NaN
124.151398	NaN
127.506844	NaN
130.862289	NaN
134.217728	NaN
137.573166	NaN
140.928619	NaN
144.284058	NaN
147.639496	NaN
150.994949	NaN
154.350388	NaN
157.705826	NaN
161.061279	NaN
164.416718	NaN
167.772156	NaN
171.127609	NaN
174.483047	NaN
177.838486	NaN
181.193939	NaN
184.549377	NaN
187.904816	NaN
191.260269	NaN
194.615707	NaN
197.971146	NaN
201.326599	NaN
204.682037	NaN
208.037476	NaN
211.392929	NaN
214.748367	NaN
221.459244	NaN
228.170135	NaN
234.881027	NaN
241.591904	NaN
248.302795	NaN
255.013687	NaN
261.724579	NaN
268.435455	NaN
275.146332	NaN
281.857239	NaN
288.568115	NaN
295.278992	NaN
301.989899	NaN
308.700775	NaN
315.411652	NaN
322.122559	NaN
328.833435	NaN
335.544312	NaN
342.255219	NaN
348.966095	NaN
355.676971	NaN
362.387878	NaN
369.098755	NaN
375.809631	NaN
382.520538	NaN
389.231415	NaN
395.942291	NaN
402.653198	NaN
409.364075	NaN
