ALV-5000/E-WIN Data
Date :	"24-Feb-12"
Time :	"19:30:32"
Samplename : 	""
SampMemo(0) : 	""
SampMemo(1) : 	""
SampMemo(2) : 	""
SampMemo(3) : 	""
SampMemo(4) : 	""
SampMemo(5) : 	""
SampMemo(6) : 	""
SampMemo(7) : 	""
SampMemo(8) : 	""
SampMemo(9) : 	""
Temperature [K] :	     298.16000
Viscosity [cp]  :	       0.89000
Refractive Index:	       1.33200
Wavelength [nm] :	     488.00000
Angle [°]       :	      90.00000
Duration [s]    :	        10
Runs            :	         3
Mode            :	"DUAL AUTO CH0"
MeanCR0 [kHz]   :	    2652.99219
MeanCR1 [kHz]   :	       0.00000

"Correlation (Multi, Averaged)"
"Lag [ms]"	"Average(0)"	"Run  1"	"Run  2"	"Run  3"	"Average(1)"	" 1,   0.000"	" 2,   0.000"	" 3,   0.000"	
  4.00000E-004	 -1.33893E-003	 -1.30530E-003	 -1.55422E-003	 -1.15728E-003	 -1.19171E-003	 -1.33010E-003	 -1.19497E-003	 -1.05006E-003	
  8.00000E-004	  2.08588E-003	  1.99233E-003	  1.96173E-003	  2.30357E-003	  2.56288E-003	  2.58630E-003	  2.79834E-003	  2.30401E-003	
  1.20000E-003	  1.89237E-003	  1.67298E-003	  1.93752E-003	  2.06661E-003	  3.09749E-003	  3.01093E-003	  2.94226E-003	  3.33928E-003	
  1.60000E-003	  1.79050E-003	  1.86227E-003	  1.68520E-003	  1.82402E-003	  2.76354E-003	  2.68063E-003	  2.81891E-003	  2.79109E-003	
  2.00000E-003	  1.64600E-003	  1.60441E-003	  1.45140E-003	  1.88219E-003	  2.26407E-003	  2.05259E-003	  2.30113E-003	  2.43850E-003	
  2.40000E-003	  1.45338E-003	  1.41731E-003	  1.26592E-003	  1.67690E-003	  2.05643E-003	  2.39759E-003	  1.81474E-003	  1.95696E-003	
  2.80000E-003	  1.32687E-003	  1.31627E-003	  1.24923E-003	  1.41511E-003	  1.79971E-003	  1.68838E-003	  1.66871E-003	  2.04203E-003	
  3.20000E-003	  1.01650E-003	  8.24195E-004	  1.04852E-003	  1.17680E-003	  2.01991E-003	  1.97445E-003	  1.76453E-003	  2.32076E-003	
  3.60000E-003	  1.12923E-003	  1.17405E-003	  8.31018E-004	  1.38262E-003	  2.13946E-003	  2.09177E-003	  1.89254E-003	  2.43407E-003	
  4.00000E-003	  1.04164E-003	  8.19193E-004	  1.26259E-003	  1.04315E-003	  2.15857E-003	  2.30295E-003	  1.88280E-003	  2.28996E-003	
  4.40000E-003	  9.23430E-004	  5.83525E-004	  9.40755E-004	  1.24601E-003	  2.41006E-003	  1.98531E-003	  2.49441E-003	  2.75046E-003	
  4.80000E-003	  1.10980E-003	  9.98014E-004	  1.03033E-003	  1.30105E-003	  2.15687E-003	  2.07096E-003	  1.91202E-003	  2.48764E-003	
  5.20000E-003	  1.06179E-003	  1.00815E-003	  1.01761E-003	  1.15959E-003	  2.32715E-003	  2.04009E-003	  2.41214E-003	  2.52924E-003	
  5.60000E-003	  1.15613E-003	  1.06980E-003	  9.16688E-004	  1.48190E-003	  2.13026E-003	  1.95970E-003	  2.04892E-003	  2.38216E-003	
  6.00000E-003	  1.11604E-003	  8.06008E-004	  1.10672E-003	  1.43540E-003	  2.07073E-003	  1.82897E-003	  1.78262E-003	  2.60060E-003	
  6.40000E-003	  1.06787E-003	  8.36593E-004	  1.12910E-003	  1.23793E-003	  2.06390E-003	  2.01764E-003	  1.84012E-003	  2.33396E-003	
  7.20000E-003	  1.03177E-003	  9.58050E-004	  1.07289E-003	  1.06438E-003	  2.12627E-003	  2.02125E-003	  2.03788E-003	  2.31967E-003	
  8.00000E-003	  8.19595E-004	  6.53427E-004	  8.47100E-004	  9.58259E-004	  2.25562E-003	  2.17208E-003	  2.20204E-003	  2.39274E-003	
  8.80000E-003	  1.00890E-003	  8.73244E-004	  9.27702E-004	  1.22576E-003	  2.09199E-003	  1.90901E-003	  2.11997E-003	  2.24699E-003	
  9.60000E-003	  9.44854E-004	  9.97947E-004	  8.52884E-004	  9.83729E-004	  2.03238E-003	  2.02730E-003	  2.10751E-003	  1.96232E-003	
  1.04000E-002	  1.07683E-003	  9.01071E-004	  1.03772E-003	  1.29169E-003	  2.02351E-003	  1.92083E-003	  1.91075E-003	  2.23896E-003	
  1.12000E-002	  1.03262E-003	  1.03553E-003	  9.70619E-004	  1.09171E-003	  2.20146E-003	  2.04123E-003	  2.15169E-003	  2.41145E-003	
  1.20000E-002	  9.98241E-004	  7.79870E-004	  1.02255E-003	  1.19231E-003	  2.16221E-003	  1.78933E-003	  2.14804E-003	  2.54928E-003	
  1.28000E-002	  9.13281E-004	  8.13854E-004	  8.83212E-004	  1.04278E-003	  2.15924E-003	  2.04839E-003	  2.21573E-003	  2.21361E-003	
  1.44000E-002	  9.79117E-004	  8.67503E-004	  9.13705E-004	  1.15614E-003	  2.18348E-003	  1.98330E-003	  2.14670E-003	  2.42044E-003	
  1.60000E-002	  9.88389E-004	  9.10109E-004	  9.79358E-004	  1.07570E-003	  2.02546E-003	  1.89301E-003	  1.91992E-003	  2.26345E-003	
  1.76000E-002	  9.75570E-004	  8.91965E-004	  1.00806E-003	  1.02669E-003	  2.22090E-003	  2.07092E-003	  2.16268E-003	  2.42909E-003	
  1.92000E-002	  1.04449E-003	  9.32395E-004	  1.01255E-003	  1.18853E-003	  2.09652E-003	  1.98018E-003	  2.01709E-003	  2.29229E-003	
  2.08000E-002	  1.00165E-003	  8.14490E-004	  1.09150E-003	  1.09895E-003	  2.18373E-003	  2.14119E-003	  1.94993E-003	  2.46008E-003	
  2.24000E-002	  9.19439E-004	  7.89144E-004	  8.20346E-004	  1.14883E-003	  2.03399E-003	  1.80010E-003	  2.01276E-003	  2.28909E-003	
  2.40000E-002	  1.00579E-003	  9.15982E-004	  1.06647E-003	  1.03491E-003	  2.10806E-003	  2.03327E-003	  2.14659E-003	  2.14433E-003	
  2.56000E-002	  1.05214E-003	  9.23934E-004	  9.72258E-004	  1.26022E-003	  1.93037E-003	  1.81554E-003	  1.92111E-003	  2.05446E-003	
  2.88000E-002	  9.89313E-004	  9.11030E-004	  9.47634E-004	  1.10927E-003	  1.92070E-003	  1.71966E-003	  1.89833E-003	  2.14412E-003	
  3.20000E-002	  1.00245E-003	  8.96002E-004	  9.85834E-004	  1.12551E-003	  1.98060E-003	  1.86683E-003	  1.89989E-003	  2.17508E-003	
  3.52000E-002	  9.42255E-004	  8.15447E-004	  9.61102E-004	  1.05022E-003	  1.91567E-003	  1.65538E-003	  1.89571E-003	  2.19592E-003	
  3.84000E-002	  9.72200E-004	  7.93197E-004	  9.46161E-004	  1.17724E-003	  1.95347E-003	  1.93261E-003	  1.75664E-003	  2.17114E-003	
  4.16000E-002	  1.03947E-003	  9.32175E-004	  9.41723E-004	  1.24452E-003	  1.90511E-003	  1.91008E-003	  1.72623E-003	  2.07901E-003	
  4.48000E-002	  1.01164E-003	  1.03743E-003	  8.71191E-004	  1.12629E-003	  1.92027E-003	  1.82016E-003	  1.72641E-003	  2.21423E-003	
  4.80000E-002	  8.84363E-004	  7.43374E-004	  9.49405E-004	  9.60309E-004	  1.76502E-003	  1.57394E-003	  1.79867E-003	  1.92245E-003	
  5.12000E-002	  9.64877E-004	  8.76269E-004	  9.29525E-004	  1.08884E-003	  1.80380E-003	  1.64385E-003	  1.78241E-003	  1.98514E-003	
  5.76000E-002	  9.33950E-004	  8.55964E-004	  8.59499E-004	  1.08639E-003	  1.77642E-003	  1.67741E-003	  1.68679E-003	  1.96507E-003	
  6.40000E-002	  9.62885E-004	  8.52901E-004	  9.25523E-004	  1.11023E-003	  1.73736E-003	  1.58977E-003	  1.69323E-003	  1.92908E-003	
  7.04000E-002	  9.43710E-004	  8.47649E-004	  8.64992E-004	  1.11849E-003	  1.71232E-003	  1.65659E-003	  1.58702E-003	  1.89334E-003	
  7.68000E-002	  9.54154E-004	  8.20867E-004	  9.28485E-004	  1.11311E-003	  1.69145E-003	  1.64975E-003	  1.60523E-003	  1.81936E-003	
  8.32000E-002	  9.34972E-004	  8.65661E-004	  8.96315E-004	  1.04294E-003	  1.64865E-003	  1.52360E-003	  1.55369E-003	  1.86866E-003	
  8.96000E-002	  9.35290E-004	  8.20019E-004	  8.84890E-004	  1.10096E-003	  1.66686E-003	  1.53587E-003	  1.62376E-003	  1.84094E-003	
  9.60000E-002	  9.56819E-004	  8.63735E-004	  9.18319E-004	  1.08840E-003	  1.60748E-003	  1.52173E-003	  1.49337E-003	  1.80733E-003	
  1.02400E-001	  9.50697E-004	  8.27382E-004	  9.32274E-004	  1.09244E-003	  1.62044E-003	  1.50469E-003	  1.49432E-003	  1.86231E-003	
  1.15200E-001	  9.09667E-004	  7.96085E-004	  8.61595E-004	  1.07132E-003	  1.61349E-003	  1.46519E-003	  1.52707E-003	  1.84821E-003	
  1.28000E-001	  9.09347E-004	  7.56222E-004	  8.95174E-004	  1.07664E-003	  1.51461E-003	  1.45062E-003	  1.45159E-003	  1.64161E-003	
  1.40800E-001	  9.09564E-004	  8.15743E-004	  8.73961E-004	  1.03899E-003	  1.50568E-003	  1.43798E-003	  1.40942E-003	  1.66965E-003	
  1.53600E-001	  9.04884E-004	  8.23435E-004	  8.41468E-004	  1.04975E-003	  1.49209E-003	  1.44166E-003	  1.38983E-003	  1.64479E-003	
  1.66400E-001	  9.13597E-004	  7.74195E-004	  8.89272E-004	  1.07732E-003	  1.49154E-003	  1.42589E-003	  1.38604E-003	  1.66269E-003	
  1.79200E-001	  8.80795E-004	  7.52281E-004	  8.58633E-004	  1.03147E-003	  1.42904E-003	  1.33424E-003	  1.30857E-003	  1.64432E-003	
  1.92000E-001	  8.96853E-004	  8.09356E-004	  8.28909E-004	  1.05230E-003	  1.39441E-003	  1.27514E-003	  1.30181E-003	  1.60629E-003	
  2.04800E-001	  8.82598E-004	  7.73479E-004	  8.20001E-004	  1.05431E-003	  1.44592E-003	  1.36518E-003	  1.36593E-003	  1.60663E-003	
  2.30400E-001	  8.76892E-004	  7.88156E-004	  8.38468E-004	  1.00405E-003	  1.42196E-003	  1.33241E-003	  1.31081E-003	  1.62265E-003	
  2.56000E-001	  8.54359E-004	  7.57377E-004	  8.01626E-004	  1.00407E-003	  1.38569E-003	  1.29851E-003	  1.30502E-003	  1.55355E-003	
  2.81600E-001	  8.49906E-004	  7.55533E-004	  7.99158E-004	  9.95026E-004	  1.37234E-003	  1.24676E-003	  1.27527E-003	  1.59498E-003	
  3.07200E-001	  8.36612E-004	  7.05595E-004	  8.07432E-004	  9.96808E-004	  1.37118E-003	  1.25292E-003	  1.30381E-003	  1.55680E-003	
  3.32800E-001	  8.33584E-004	  7.42199E-004	  7.92792E-004	  9.65760E-004	  1.34278E-003	  1.24581E-003	  1.24686E-003	  1.53567E-003	
  3.58400E-001	  8.09997E-004	  6.98259E-004	  7.63321E-004	  9.68411E-004	  1.33778E-003	  1.25788E-003	  1.23220E-003	  1.52325E-003	
  3.84000E-001	  8.31982E-004	  7.26144E-004	  7.82337E-004	  9.87466E-004	  1.31908E-003	  1.23894E-003	  1.21568E-003	  1.50260E-003	
  4.09600E-001	  7.97409E-004	  6.75283E-004	  7.51038E-004	  9.65907E-004	  1.28926E-003	  1.20718E-003	  1.19423E-003	  1.46636E-003	
  4.60800E-001	  7.63128E-004	  6.60737E-004	  7.36778E-004	  8.91868E-004	  1.26516E-003	  1.18795E-003	  1.16495E-003	  1.44260E-003	
  5.12000E-001	  7.33379E-004	  6.28696E-004	  7.07775E-004	  8.63666E-004	  1.23957E-003	  1.14562E-003	  1.12027E-003	  1.45282E-003	
  5.63200E-001	  7.23426E-004	  6.12718E-004	  6.86468E-004	  8.71093E-004	  1.16961E-003	  1.09709E-003	  1.04556E-003	  1.36617E-003	
  6.14400E-001	  7.08738E-004	  6.13430E-004	  6.67274E-004	  8.45509E-004	  1.14236E-003	  1.05690E-003	  1.05258E-003	  1.31759E-003	
  6.65600E-001	  6.73348E-004	  5.68510E-004	  6.30923E-004	  8.20611E-004	  1.11926E-003	  1.05263E-003	  1.01013E-003	  1.29502E-003	
  7.16800E-001	  6.71617E-004	  5.65977E-004	  6.48365E-004	  8.00509E-004	  1.08313E-003	  1.03582E-003	  9.77616E-004	  1.23596E-003	
  7.68000E-001	  6.48401E-004	  5.51774E-004	  5.98131E-004	  7.95297E-004	  1.05104E-003	  9.63966E-004	  9.87075E-004	  1.20208E-003	
  8.19200E-001	  6.56098E-004	  5.50890E-004	  6.22680E-004	  7.94725E-004	  1.03714E-003	  9.68438E-004	  9.56881E-004	  1.18610E-003	
  9.21600E-001	  6.39276E-004	  5.28098E-004	  6.08365E-004	  7.81366E-004	  1.06125E-003	  9.91553E-004	  9.46767E-004	  1.24542E-003	
  1.02400E+000	  6.41402E-004	  5.35959E-004	  6.00835E-004	  7.87410E-004	  1.04306E-003	  9.69515E-004	  9.55444E-004	  1.20422E-003	
  1.12640E+000	  6.16273E-004	  5.03533E-004	  5.78496E-004	  7.66791E-004	  1.06416E-003	  1.00645E-003	  9.61176E-004	  1.22485E-003	
  1.22880E+000	  6.02387E-004	  4.81458E-004	  5.77550E-004	  7.48153E-004	  1.02887E-003	  9.45582E-004	  9.51803E-004	  1.18921E-003	
  1.33120E+000	  5.62998E-004	  4.51456E-004	  5.23426E-004	  7.14113E-004	  9.95769E-004	  9.29553E-004	  8.99563E-004	  1.15819E-003	
  1.43360E+000	  5.61855E-004	  4.54070E-004	  5.39058E-004	  6.92436E-004	  9.62449E-004	  8.81740E-004	  8.70815E-004	  1.13479E-003	
  1.53600E+000	  5.40702E-004	  4.25030E-004	  5.12055E-004	  6.85022E-004	  9.49685E-004	  8.75778E-004	  8.49750E-004	  1.12353E-003	
  1.63840E+000	  5.51333E-004	  4.36715E-004	  5.14865E-004	  7.02419E-004	  9.40136E-004	  8.60425E-004	  8.45954E-004	  1.11403E-003	
  1.84320E+000	  5.41923E-004	  4.24856E-004	  5.09828E-004	  6.91087E-004	  9.14704E-004	  8.34318E-004	  8.23094E-004	  1.08670E-003	
  2.04800E+000	  5.11493E-004	  4.06641E-004	  4.64174E-004	  6.63663E-004	  8.86999E-004	  7.99507E-004	  7.91390E-004	  1.07010E-003	
  2.25280E+000	  5.06563E-004	  3.96119E-004	  4.73681E-004	  6.49888E-004	  8.86965E-004	  8.02814E-004	  7.96884E-004	  1.06120E-003	
  2.45760E+000	  4.95964E-004	  3.90839E-004	  4.42666E-004	  6.54388E-004	  8.38295E-004	  7.77365E-004	  7.36163E-004	  1.00136E-003	
  2.66240E+000	  4.84271E-004	  3.96549E-004	  4.40167E-004	  6.16098E-004	  8.21180E-004	  7.50928E-004	  7.31621E-004	  9.80992E-004	
  2.86720E+000	  4.73267E-004	  3.74162E-004	  4.22502E-004	  6.23139E-004	  8.24817E-004	  7.54852E-004	  7.19533E-004	  1.00007E-003	
  3.07200E+000	  4.75601E-004	  3.83656E-004	  4.24712E-004	  6.18436E-004	  8.25718E-004	  7.47185E-004	  7.55366E-004	  9.74602E-004	
  3.27680E+000	  4.63397E-004	  3.67557E-004	  4.13544E-004	  6.09089E-004	  7.94898E-004	  7.20561E-004	  7.23208E-004	  9.40926E-004	
  3.68640E+000	  4.45123E-004	  3.41574E-004	  4.01515E-004	  5.92282E-004	  7.77924E-004	  7.01713E-004	  6.99110E-004	  9.32950E-004	
  4.09600E+000	  4.42036E-004	  3.33445E-004	  3.93171E-004	  5.99491E-004	  7.50100E-004	  6.71576E-004	  6.79595E-004	  8.99128E-004	
  4.50560E+000	  4.33796E-004	  3.21642E-004	  3.90910E-004	  5.88835E-004	  7.36535E-004	  6.61046E-004	  6.61869E-004	  8.86689E-004	
  4.91520E+000	  4.29167E-004	  3.26613E-004	  3.80928E-004	  5.79960E-004	  7.27697E-004	  6.44506E-004	  6.52358E-004	  8.86227E-004	
  5.32480E+000	  4.26821E-004	  3.21692E-004	  3.91711E-004	  5.67062E-004	  7.19162E-004	  6.57185E-004	  6.44715E-004	  8.55586E-004	
  5.73440E+000	  4.18889E-004	  3.18010E-004	  3.81560E-004	  5.57097E-004	  7.12860E-004	  6.45087E-004	  6.29529E-004	  8.63966E-004	
  6.14400E+000	  4.10248E-004	  3.12012E-004	  3.76036E-004	  5.42696E-004	  6.94645E-004	  6.39019E-004	  6.15856E-004	  8.29059E-004	
  6.45120E+000	  3.97598E-004	  3.11250E-004	  3.57533E-004	  5.24011E-004	  6.92228E-004	  6.46679E-004	  6.13105E-004	  8.16901E-004	
  7.27040E+000	  3.95810E-004	  3.11671E-004	  3.55161E-004	  5.20598E-004	  6.80545E-004	  6.36222E-004	  5.98135E-004	  8.07278E-004	
  8.08960E+000	  3.89833E-004	  3.03591E-004	  3.53356E-004	  5.12551E-004	  6.76356E-004	  6.30136E-004	  5.87133E-004	  8.11800E-004	
  8.90880E+000	  3.84760E-004	  3.04747E-004	  3.48036E-004	  5.01496E-004	  6.63517E-004	  6.16239E-004	  5.70897E-004	  8.03416E-004	
  9.72800E+000	  3.79957E-004	  2.93792E-004	  3.43709E-004	  5.02369E-004	  6.54301E-004	  6.19285E-004	  5.58271E-004	  7.85348E-004	
  1.05472E+001	  3.73609E-004	  2.92502E-004	  3.29809E-004	  4.98518E-004	  6.44803E-004	  6.05865E-004	  5.55954E-004	  7.72589E-004	
  1.13664E+001	  3.67643E-004	  2.85346E-004	  3.23724E-004	  4.93859E-004	  6.47859E-004	  5.90511E-004	  5.68090E-004	  7.84976E-004	
  1.21856E+001	  3.72755E-004	  2.88267E-004	  3.23186E-004	  5.06811E-004	  6.39004E-004	  5.83441E-004	  5.59230E-004	  7.74342E-004	
  1.30048E+001	  3.66377E-004	  2.82543E-004	  3.21442E-004	  4.95146E-004	  6.22321E-004	  5.66350E-004	  5.40188E-004	  7.60424E-004	
  1.46432E+001	  3.64990E-004	  2.86490E-004	  3.21354E-004	  4.87127E-004	  6.24260E-004	  5.68775E-004	  5.34315E-004	  7.69689E-004	
  1.62816E+001	  3.63554E-004	  2.80417E-004	  3.18505E-004	  4.91742E-004	  6.05648E-004	  5.56823E-004	  5.20872E-004	  7.39250E-004	
  1.79200E+001	  3.61324E-004	  2.75787E-004	  3.21586E-004	  4.86600E-004	  6.00159E-004	  5.58308E-004	  5.07251E-004	  7.34918E-004	
  1.95584E+001	  3.51337E-004	  2.65161E-004	  3.15342E-004	  4.73508E-004	  5.95232E-004	  5.55178E-004	  5.00929E-004	  7.29587E-004	
  2.11968E+001	  3.53076E-004	  2.64732E-004	  3.13817E-004	  4.80678E-004	  5.97518E-004	  5.54620E-004	  5.10181E-004	  7.27752E-004	
  2.28352E+001	  3.44671E-004	  2.58589E-004	  3.09361E-004	  4.66062E-004	  5.81893E-004	  5.42613E-004	  4.86102E-004	  7.16963E-004	
  2.44736E+001	  3.38111E-004	  2.49016E-004	  3.08175E-004	  4.57142E-004	  5.77257E-004	  5.29183E-004	  4.82061E-004	  7.20528E-004	
  2.61120E+001	  3.31688E-004	  2.46614E-004	  2.95544E-004	  4.52905E-004	  5.74432E-004	  5.19242E-004	  4.81323E-004	  7.22731E-004	
  2.93888E+001	  3.31418E-004	  2.39328E-004	  2.96060E-004	  4.58867E-004	  5.65766E-004	  4.97187E-004	  4.91516E-004	  7.08596E-004	
  3.26656E+001	  3.30482E-004	  2.46451E-004	  2.90932E-004	  4.54063E-004	  5.57434E-004	  4.81282E-004	  5.06091E-004	  6.84931E-004	
  3.59424E+001	  3.39428E-004	  2.57281E-004	  3.01041E-004	  4.59960E-004	  5.57479E-004	  5.00884E-004	  4.86812E-004	  6.84739E-004	
  3.92192E+001	  3.32276E-004	  2.46592E-004	  2.89348E-004	  4.60889E-004	  5.52096E-004	  4.95153E-004	  4.76144E-004	  6.84991E-004	
  4.24960E+001	  3.24904E-004	  2.39011E-004	  2.89697E-004	  4.46004E-004	  5.49030E-004	  4.95936E-004	  4.64458E-004	  6.86696E-004	
  4.57728E+001	  3.22628E-004	  2.46576E-004	  2.83263E-004	  4.38044E-004	  5.43942E-004	  4.85670E-004	  4.61717E-004	  6.84440E-004	
  4.90496E+001	  3.20203E-004	  2.30723E-004	  2.85325E-004	  4.44561E-004	  5.37159E-004	  4.78508E-004	  4.67356E-004	  6.65614E-004	
  5.23264E+001	  3.20190E-004	  2.29963E-004	  2.84763E-004	  4.45843E-004	  5.26588E-004	  4.68032E-004	  4.56158E-004	  6.55575E-004	
  5.88800E+001	  3.18833E-004	  2.32947E-004	  2.79253E-004	  4.44299E-004	  5.29184E-004	  4.57194E-004	  4.81995E-004	  6.48363E-004	
  6.54336E+001	  3.16360E-004	  2.14825E-004	  2.93350E-004	  4.40905E-004	  5.34302E-004	  4.47396E-004	  5.11101E-004	  6.44410E-004	
  7.19872E+001	  3.14304E-004	  2.15929E-004	  2.88741E-004	  4.38241E-004	  5.31449E-004	  4.48581E-004	  5.04580E-004	  6.41185E-004	
  7.85408E+001	  3.12218E-004	  2.22967E-004	  2.83521E-004	  4.30165E-004	  5.24080E-004	  4.46457E-004	  4.95457E-004	  6.30326E-004	
  8.50944E+001	  3.14004E-004	  2.13195E-004	  2.90887E-004	  4.37930E-004	  5.28139E-004	  4.54089E-004	  4.86731E-004	  6.43598E-004	
  9.16480E+001	  3.10069E-004	  2.23148E-004	  2.74650E-004	  4.32410E-004	  5.13314E-004	  4.34674E-004	  4.80678E-004	  6.24590E-004	
  9.82016E+001	  3.04408E-004	  2.19725E-004	  2.60929E-004	  4.32570E-004	  5.05680E-004	  4.30031E-004	  4.61888E-004	  6.25121E-004	
  1.04755E+002	  2.97571E-004	  2.13214E-004	  2.68320E-004	  4.11180E-004	  4.87556E-004	  4.05339E-004	  4.56085E-004	  6.01245E-004	
  1.17862E+002	  2.96312E-004	  2.09346E-004	  2.66972E-004	  4.12618E-004	  4.85248E-004	  4.15501E-004	  4.58995E-004	  5.81247E-004	
  1.30970E+002	  2.92261E-004	  2.07835E-004	  2.55978E-004	  4.12969E-004	  4.73496E-004	  3.96634E-004	  4.46925E-004	  5.76929E-004	
  1.44077E+002	  2.92302E-004	  1.97782E-004	  2.55708E-004	  4.23416E-004	  4.71421E-004	  3.74250E-004	  4.39972E-004	  6.00040E-004	
  1.57184E+002	  2.90955E-004	  1.92939E-004	  2.61776E-004	  4.18149E-004	  4.75230E-004	  3.86377E-004	  4.42983E-004	  5.96330E-004	
  1.70291E+002	  2.97435E-004	  2.08835E-004	  2.69109E-004	  4.14362E-004	  4.77395E-004	  3.97386E-004	  4.66218E-004	  5.68582E-004	
  1.83398E+002	  2.88789E-004	  2.09975E-004	  2.58315E-004	  3.98076E-004	  4.74740E-004	  3.95703E-004	  4.55223E-004	  5.73293E-004	
  1.96506E+002	  2.83496E-004	  1.96528E-004	  2.65324E-004	  3.88636E-004	  4.82937E-004	  4.01291E-004	  4.78260E-004	  5.69259E-004	
  2.09613E+002	  2.70326E-004	  1.88944E-004	  2.59593E-004	  3.62441E-004	  4.53667E-004	  3.76699E-004	  4.39445E-004	  5.44858E-004	
  2.35827E+002	  2.61817E-004	  1.79914E-004	  2.58736E-004	  3.46801E-004	  4.54408E-004	  3.72267E-004	  4.24135E-004	  5.66822E-004	
  2.62042E+002	  2.59988E-004	  1.76751E-004	  2.49773E-004	  3.53441E-004	  4.66664E-004	  4.00517E-004	  4.17444E-004	  5.82032E-004	
  2.88256E+002	  2.63125E-004	  1.88091E-004	  2.45595E-004	  3.55689E-004	  4.75249E-004	  4.25850E-004	  4.24230E-004	  5.75668E-004	
  3.14470E+002	  2.64198E-004	  1.90298E-004	  2.41819E-004	  3.60479E-004	  4.50584E-004	  4.18372E-004	  3.79843E-004	  5.53536E-004	
