ALV-5000/E-WIN Data
Date :	"06.12.2013"
Time :	"12:58:32"
Samplename : 	""
SampMemo(0) : 	""
SampMemo(1) : 	""
SampMemo(2) : 	""
SampMemo(3) : 	""
SampMemo(4) : 	""
SampMemo(5) : 	""
SampMemo(6) : 	""
SampMemo(7) : 	""
SampMemo(8) : 	""
SampMemo(9) : 	""
Temperature [K] :	     298.16000
Viscosity [cp]  :	       0.89000
Refractive Index:	       1.33200
Wavelength [nm] :	     488.00000
Angle [°]       :	       0.00000
Duration [s]    :	        20
Runs            :	         6
Mode            :	"SINGLE CROSS CH0"
MeanCR0 [kHz]   :	     100.35390
MeanCR1 [kHz]   :	      96.75777

"Correlation (Multi, Averaged)"
"Lag [ms]"	"Average"	" 1,  99.876"	" 2,  98.214"	" 3,  99.981"	" 4, 101.263"	" 5, 100.263"	" 6, 100.354"	
  2.00000E-004	  7.42037E-002	  7.44109E-002	  7.22684E-002	  6.29177E-002	  8.01035E-002	  7.80339E-002	  7.74879E-002	
  4.00000E-004	  7.42324E-002	  7.75580E-002	  7.33116E-002	  6.98110E-002	  7.07200E-002	  6.85527E-002	  8.54412E-002	
  6.00000E-004	  7.25496E-002	  6.47334E-002	  7.48897E-002	  6.95760E-002	  7.17216E-002	  7.79033E-002	  7.64737E-002	
  8.00000E-004	  7.82366E-002	  7.50403E-002	  7.69226E-002	  8.12214E-002	  7.53590E-002	  7.35937E-002	  8.72827E-002	
  1.00000E-003	  7.87586E-002	  6.98737E-002	  6.94332E-002	  7.21087E-002	  8.57178E-002	  7.98883E-002	  9.55296E-002	
  1.20000E-003	  7.99932E-002	  7.23914E-002	  8.88521E-002	  7.67042E-002	  7.15371E-002	  9.48545E-002	  7.56196E-002	
  1.40000E-003	  7.75599E-002	  7.54075E-002	  7.91427E-002	  8.09342E-002	  7.27496E-002	  8.76979E-002	  6.94278E-002	
  1.60000E-003	  7.68030E-002	  6.86935E-002	  8.55621E-002	  7.35709E-002	  6.97974E-002	  7.86869E-002	  8.45071E-002	
  1.80000E-003	  7.49358E-002	  8.09937E-002	  7.93566E-002	  7.23176E-002	  7.26441E-002	  6.37990E-002	  8.05037E-002	
  2.00000E-003	  7.75891E-002	  7.43584E-002	  7.81797E-002	  8.16653E-002	  8.37145E-002	  7.94965E-002	  6.81200E-002	
  2.20000E-003	  7.84847E-002	  7.54599E-002	  8.02661E-002	  7.97070E-002	  8.08151E-002	  8.32838E-002	  7.13761E-002	
  2.40000E-003	  7.15542E-002	  7.32045E-002	  7.40873E-002	  6.30483E-002	  7.41465E-002	  6.86049E-002	  7.62335E-002	
  2.60000E-003	  7.52301E-002	  7.79252E-002	  7.65214E-002	  6.85577E-002	  7.81793E-002	  7.13213E-002	  7.88757E-002	
  2.80000E-003	  7.62596E-002	  7.05294E-002	  7.56654E-002	  7.93414E-002	  7.00610E-002	  8.14032E-002	  8.05571E-002	
  3.00000E-003	  7.54623E-002	  7.44895E-002	  7.48897E-002	  7.77748E-002	  7.59125E-002	  7.29668E-002	  7.67406E-002	
  3.20000E-003	  7.47970E-002	  7.41360E-002	  7.91432E-002	  7.30476E-002	  7.09039E-002	  7.94687E-002	  7.20828E-002	
  3.60000E-003	  7.66638E-002	  6.83269E-002	  7.60405E-002	  7.97842E-002	  7.87850E-002	  7.77710E-002	  7.92754E-002	
  4.00000E-003	  7.53186E-002	  7.58539E-002	  7.47694E-002	  7.34393E-002	  7.82847E-002	  7.45192E-002	  7.50452E-002	
  4.40000E-003	  7.45563E-002	  7.10282E-002	  7.62673E-002	  7.43662E-002	  7.72172E-002	  7.81236E-002	  7.03352E-002	
  4.80000E-003	  7.41189E-002	  6.86023E-002	  7.58393E-002	  7.21337E-002	  7.22224E-002	  8.06963E-002	  7.52193E-002	
  5.20000E-003	  7.56446E-002	  7.83579E-002	  7.62138E-002	  7.91314E-002	  7.07595E-002	  7.45192E-002	  7.48857E-002	
  5.60000E-003	  7.61922E-002	  6.93361E-002	  8.15093E-002	  8.33875E-002	  7.90491E-002	  7.12543E-002	  7.26171E-002	
  6.00000E-003	  7.59971E-002	  7.36372E-002	  7.87944E-002	  7.81262E-002	  7.33821E-002	  7.10584E-002	  8.09841E-002	
  6.40000E-003	  7.61896E-002	  7.22521E-002	  7.79653E-002	  7.73552E-002	  7.27639E-002	  7.22892E-002	  8.45120E-002	
  7.20000E-003	  7.49345E-002	  7.01605E-002	  8.00984E-002	  7.33081E-002	  7.41873E-002	  7.46137E-002	  7.72392E-002	
  8.00000E-003	  7.37813E-002	  6.78919E-002	  7.64139E-002	  7.37389E-002	  7.45365E-002	  7.39281E-002	  7.61783E-002	
  8.80000E-003	  7.53061E-002	  6.89934E-002	  7.71361E-002	  7.65588E-002	  7.78313E-002	  7.23022E-002	  7.90146E-002	
  9.60000E-003	  7.49720E-002	  7.35044E-002	  7.24084E-002	  7.66442E-002	  7.69549E-002	  7.18190E-002	  7.85008E-002	
  1.04000E-002	  7.53287E-002	  7.29929E-002	  7.82796E-002	  7.36290E-002	  7.24674E-002	  7.51884E-002	  7.94149E-002	
  1.12000E-002	  7.51155E-002	  7.60221E-002	  7.79452E-002	  7.15663E-002	  7.24279E-002	  7.71865E-002	  7.55450E-002	
  1.20000E-002	  7.42209E-002	  6.97343E-002	  7.23281E-002	  7.22196E-002	  7.54525E-002	  7.82312E-002	  7.73599E-002	
  1.28000E-002	  7.34620E-002	  6.87678E-002	  7.48353E-002	  7.52591E-002	  7.00309E-002	  7.64702E-002	  7.54088E-002	
  1.44000E-002	  7.42106E-002	  7.28427E-002	  7.59782E-002	  7.25632E-002	  7.28617E-002	  7.66400E-002	  7.43780E-002	
  1.60000E-002	  7.41081E-002	  7.31142E-002	  7.50621E-002	  7.22140E-002	  7.00710E-002	  7.74073E-002	  7.67800E-002	
  1.76000E-002	  7.42055E-002	  7.21635E-002	  7.30159E-002	  7.74295E-002	  7.46475E-002	  7.42795E-002	  7.36974E-002	
  1.92000E-002	  7.33812E-002	  7.16292E-002	  7.42229E-002	  7.27035E-002	  7.39951E-002	  7.45636E-002	  7.31731E-002	
  2.08000E-002	  7.35820E-002	  7.19209E-002	  7.44335E-002	  7.38393E-002	  7.34350E-002	  7.35384E-002	  7.43246E-002	
  2.24000E-002	  7.31023E-002	  6.94819E-002	  7.13508E-002	  7.47304E-002	  7.43839E-002	  7.55626E-002	  7.31041E-002	
  2.40000E-002	  7.18926E-002	  6.93409E-002	  7.18022E-002	  7.04189E-002	  7.05521E-002	  7.20105E-002	  7.72309E-002	
  2.56000E-002	  7.22365E-002	  6.84355E-002	  7.24288E-002	  7.16930E-002	  6.98632E-002	  7.29204E-002	  7.80779E-002	
  2.88000E-002	  7.27662E-002	  7.12783E-002	  7.17356E-002	  7.23572E-002	  7.08143E-002	  7.38526E-002	  7.65594E-002	
  3.20000E-002	  7.19316E-002	  7.19788E-002	  7.22956E-002	  7.15951E-002	  7.06831E-002	  7.36387E-002	  7.13985E-002	
  3.52000E-002	  7.20058E-002	  6.94824E-002	  7.38621E-002	  7.20128E-002	  7.17028E-002	  7.19949E-002	  7.29798E-002	
  3.84000E-002	  7.15829E-002	  6.92135E-002	  7.27921E-002	  7.27586E-002	  6.73900E-002	  7.42100E-002	  7.31332E-002	
  4.16000E-002	  7.21467E-002	  6.94649E-002	  7.46411E-002	  7.03075E-002	  6.94739E-002	  7.16978E-002	  7.72950E-002	
  4.48000E-002	  7.11999E-002	  6.78864E-002	  7.32753E-002	  7.16767E-002	  6.87804E-002	  7.21483E-002	  7.34324E-002	
  4.80000E-002	  7.10345E-002	  7.06057E-002	  7.01658E-002	  7.03385E-002	  6.91774E-002	  7.33003E-002	  7.26195E-002	
  5.12000E-002	  7.01802E-002	  6.79327E-002	  7.24908E-002	  6.80241E-002	  6.80113E-002	  7.29055E-002	  7.17168E-002	
  5.76000E-002	  7.01489E-002	  6.83704E-002	  7.03216E-002	  6.95007E-002	  7.00351E-002	  7.03034E-002	  7.23623E-002	
  6.40000E-002	  6.91145E-002	  6.60272E-002	  7.04846E-002	  6.82142E-002	  6.75388E-002	  6.93299E-002	  7.30924E-002	
  7.04000E-002	  6.83516E-002	  6.62223E-002	  6.83964E-002	  6.90987E-002	  6.67544E-002	  6.90872E-002	  7.05509E-002	
  7.68000E-002	  6.87597E-002	  6.58251E-002	  6.86617E-002	  6.92529E-002	  6.71003E-002	  7.00169E-002	  7.17012E-002	
  8.32000E-002	  6.72885E-002	  6.67053E-002	  6.69389E-002	  6.71092E-002	  6.59639E-002	  6.64364E-002	  7.05776E-002	
  8.96000E-002	  6.71802E-002	  6.58333E-002	  6.83989E-002	  6.52164E-002	  6.48256E-002	  6.86184E-002	  7.01886E-002	
  9.60000E-002	  6.68875E-002	  6.59996E-002	  6.63178E-002	  6.65704E-002	  6.52053E-002	  6.75715E-002	  6.96604E-002	
  1.02400E-001	  6.53904E-002	  6.23733E-002	  6.48623E-002	  6.52797E-002	  6.39340E-002	  6.65175E-002	  6.93759E-002	
  1.15200E-001	  6.48690E-002	  6.24316E-002	  6.55117E-002	  6.52124E-002	  6.26455E-002	  6.53118E-002	  6.81011E-002	
  1.28000E-001	  6.39855E-002	  6.19502E-002	  6.52969E-002	  6.33964E-002	  6.26139E-002	  6.40594E-002	  6.65959E-002	
  1.40800E-001	  6.31453E-002	  6.07449E-002	  6.37213E-002	  6.30448E-002	  6.26381E-002	  6.40689E-002	  6.46536E-002	
  1.53600E-001	  6.23030E-002	  5.96010E-002	  6.37567E-002	  6.22670E-002	  6.12983E-002	  6.28032E-002	  6.40920E-002	
  1.66400E-001	  6.12546E-002	  5.85283E-002	  6.24330E-002	  6.12908E-002	  6.04548E-002	  6.12071E-002	  6.36134E-002	
  1.79200E-001	  6.05045E-002	  5.83284E-002	  6.13132E-002	  5.99004E-002	  5.93573E-002	  6.14362E-002	  6.26916E-002	
  1.92000E-001	  5.96912E-002	  5.74011E-002	  5.92094E-002	  5.95549E-002	  5.87106E-002	  5.94873E-002	  6.37839E-002	
  2.04800E-001	  5.88312E-002	  5.66926E-002	  5.92622E-002	  5.80255E-002	  5.76127E-002	  6.00371E-002	  6.13574E-002	
  2.30400E-001	  5.68974E-002	  5.49855E-002	  5.78885E-002	  5.62740E-002	  5.45757E-002	  5.81294E-002	  5.95313E-002	
  2.56000E-001	  5.59571E-002	  5.34516E-002	  5.68473E-002	  5.52195E-002	  5.39453E-002	  5.78394E-002	  5.84397E-002	
  2.81600E-001	  5.40948E-002	  5.13659E-002	  5.41944E-002	  5.35831E-002	  5.21563E-002	  5.51606E-002	  5.81086E-002	
  3.07200E-001	  5.24746E-002	  5.02084E-002	  5.25453E-002	  5.10390E-002	  5.11396E-002	  5.40903E-002	  5.58248E-002	
  3.32800E-001	  5.17547E-002	  4.98071E-002	  5.22633E-002	  5.14317E-002	  4.93031E-002	  5.27237E-002	  5.49994E-002	
  3.58400E-001	  5.04703E-002	  4.83363E-002	  5.25240E-002	  4.84720E-002	  4.78051E-002	  5.20876E-002	  5.35970E-002	
  3.84000E-001	  4.88209E-002	  4.56851E-002	  4.98041E-002	  4.79527E-002	  4.70804E-002	  5.08303E-002	  5.15730E-002	
  4.09600E-001	  4.78937E-002	  4.48657E-002	  4.83680E-002	  4.71972E-002	  4.58631E-002	  4.95506E-002	  5.15174E-002	
  4.60800E-001	  4.57058E-002	  4.29998E-002	  4.68447E-002	  4.49163E-002	  4.32985E-002	  4.75309E-002	  4.86445E-002	
  5.12000E-001	  4.38863E-002	  4.19501E-002	  4.45547E-002	  4.34950E-002	  4.12623E-002	  4.58248E-002	  4.62307E-002	
  5.63200E-001	  4.21417E-002	  4.10114E-002	  4.24815E-002	  4.09208E-002	  4.03517E-002	  4.35916E-002	  4.44933E-002	
  6.14400E-001	  4.03997E-002	  3.87211E-002	  4.11029E-002	  3.91393E-002	  3.82717E-002	  4.18291E-002	  4.33341E-002	
  6.65600E-001	  3.87459E-002	  3.70367E-002	  3.95471E-002	  3.70545E-002	  3.66757E-002	  4.04050E-002	  4.17566E-002	
  7.16800E-001	  3.75123E-002	  3.63135E-002	  3.78769E-002	  3.62110E-002	  3.49008E-002	  3.95111E-002	  4.02604E-002	
  7.68000E-001	  3.59053E-002	  3.47228E-002	  3.53687E-002	  3.50057E-002	  3.42577E-002	  3.79497E-002	  3.81271E-002	
  8.19200E-001	  3.47271E-002	  3.39013E-002	  3.47308E-002	  3.40181E-002	  3.28699E-002	  3.58393E-002	  3.70029E-002	
  9.21600E-001	  3.25075E-002	  3.16826E-002	  3.26258E-002	  3.18270E-002	  3.11089E-002	  3.34298E-002	  3.43709E-002	
  1.02400E+000	  3.05403E-002	  3.01203E-002	  3.10197E-002	  2.99471E-002	  2.90328E-002	  3.07304E-002	  3.23914E-002	
  1.12640E+000	  2.88230E-002	  2.77865E-002	  2.90241E-002	  2.83340E-002	  2.74001E-002	  2.95897E-002	  3.08035E-002	
  1.22880E+000	  2.72796E-002	  2.60993E-002	  2.69644E-002	  2.71459E-002	  2.65509E-002	  2.75137E-002	  2.94033E-002	
  1.33120E+000	  2.56957E-002	  2.46621E-002	  2.53977E-002	  2.64358E-002	  2.44048E-002	  2.57500E-002	  2.75239E-002	
  1.43360E+000	  2.44572E-002	  2.33994E-002	  2.46010E-002	  2.49453E-002	  2.34682E-002	  2.42701E-002	  2.60594E-002	
  1.53600E+000	  2.30437E-002	  2.21347E-002	  2.26584E-002	  2.35825E-002	  2.18257E-002	  2.29908E-002	  2.50703E-002	
  1.63840E+000	  2.19281E-002	  2.07488E-002	  2.10963E-002	  2.21945E-002	  2.12526E-002	  2.21911E-002	  2.40853E-002	
  1.84320E+000	  2.01743E-002	  1.88040E-002	  1.97085E-002	  2.00747E-002	  1.93123E-002	  2.04310E-002	  2.27150E-002	
  2.04800E+000	  1.85208E-002	  1.72833E-002	  1.80005E-002	  1.82729E-002	  1.79550E-002	  1.86092E-002	  2.10041E-002	
  2.25280E+000	  1.74923E-002	  1.64208E-002	  1.73110E-002	  1.72052E-002	  1.62808E-002	  1.73294E-002	  2.04066E-002	
  2.45760E+000	  1.64982E-002	  1.51368E-002	  1.61409E-002	  1.62009E-002	  1.54133E-002	  1.62307E-002	  1.98665E-002	
  2.66240E+000	  1.52035E-002	  1.41447E-002	  1.43613E-002	  1.45907E-002	  1.43314E-002	  1.55726E-002	  1.82204E-002	
  2.86720E+000	  1.41872E-002	  1.35475E-002	  1.23757E-002	  1.32824E-002	  1.34860E-002	  1.56960E-002	  1.67356E-002	
  3.07200E+000	  1.44066E-002	  1.33873E-002	  1.35815E-002	  1.42350E-002	  1.40067E-002	  1.44994E-002	  1.67297E-002	
  3.22560E+000	  1.45711E-002	  1.32671E-002	  1.44859E-002	  1.49494E-002	  1.43972E-002	  1.36020E-002	  1.67252E-002	
  3.63520E+000	  1.28057E-002	  1.20040E-002	  1.24389E-002	  1.31930E-002	  1.27783E-002	  1.18989E-002	  1.45207E-002	
  4.04480E+000	  1.14486E-002	  1.05007E-002	  1.09954E-002	  1.24653E-002	  1.13005E-002	  1.03130E-002	  1.31170E-002	
  4.45440E+000	  1.06910E-002	  1.02933E-002	  9.90005E-003	  1.12906E-002	  1.01081E-002	  9.90547E-003	  1.26484E-002	
  4.86400E+000	  1.01519E-002	  1.01942E-002	  8.74889E-003	  1.13231E-002	  9.21724E-003	  9.43957E-003	  1.19882E-002	
  5.27360E+000	  8.99120E-003	  8.64809E-003	  7.26300E-003	  1.04267E-002	  7.85096E-003	  8.36670E-003	  1.13918E-002	
  5.68320E+000	  8.36159E-003	  7.94291E-003	  6.31769E-003	  1.08131E-002	  6.70389E-003	  7.78641E-003	  1.06056E-002	
  6.09280E+000	  7.63819E-003	  7.06550E-003	  5.71622E-003	  1.02240E-002	  6.17961E-003	  7.48346E-003	  9.16033E-003	
  6.50240E+000	  7.18169E-003	  6.22446E-003	  6.04436E-003	  9.50776E-003	  5.79430E-003	  7.81790E-003	  7.70136E-003	
  7.32160E+000	  6.38803E-003	  4.98163E-003	  6.57619E-003	  7.78960E-003	  5.52318E-003	  6.30156E-003	  7.15601E-003	
  8.14080E+000	  6.04725E-003	  5.17986E-003	  5.71791E-003	  5.98499E-003	  6.41282E-003	  5.34140E-003	  7.64651E-003	
  8.96000E+000	  5.63129E-003	  4.04027E-003	  5.76131E-003	  5.25603E-003	  6.65275E-003	  4.22553E-003	  7.85185E-003	
  9.77920E+000	  5.10692E-003	  3.59100E-003	  5.71028E-003	  5.40874E-003	  5.14864E-003	  3.98419E-003	  6.79867E-003	
  1.05984E+001	  4.61300E-003	  3.82099E-003	  5.26398E-003	  3.96460E-003	  4.80564E-003	  4.15465E-003	  5.66814E-003	
  1.14176E+001	  4.06303E-003	  3.89130E-003	  4.77794E-003	  3.95408E-003	  4.92040E-003	  2.48171E-003	  4.35278E-003	
  1.22368E+001	  3.70171E-003	  3.87983E-003	  3.85805E-003	  4.17832E-003	  4.10282E-003	  2.20713E-003	  3.98411E-003	
  1.30560E+001	  3.07568E-003	  2.73367E-003	  2.31680E-003	  3.87099E-003	  3.29199E-003	  2.22446E-003	  4.01620E-003	
  1.46944E+001	  2.06465E-003	  9.33339E-004	  1.95713E-003	  2.92267E-003	  1.61562E-003	  1.28295E-003	  3.67621E-003	
  1.63328E+001	  1.35202E-003	  2.86132E-004	  8.07037E-004	  3.52383E-003	  7.94221E-004	 -6.01855E-005	  2.76110E-003	
  1.79712E+001	  1.49729E-003	  1.71107E-003	  9.87059E-004	  3.68082E-003	  9.59729E-004	 -1.67421E-003	  3.31930E-003	
  1.96096E+001	  1.91098E-003	  1.39511E-003	  1.07726E-003	  5.30962E-003	  8.14889E-004	 -9.78523E-004	  3.84752E-003	
  2.12480E+001	  1.45060E-003	  2.25259E-003	  6.78989E-004	  4.80419E-003	  1.02729E-003	 -2.22736E-003	  2.16788E-003	
  2.28864E+001	  1.40535E-003	  2.59140E-003	  1.37257E-003	  2.70004E-003	  2.26129E-003	 -2.08012E-003	  1.58693E-003	
  2.45248E+001	  1.22174E-003	  7.85173E-004	  1.18523E-003	  3.73275E-003	  2.44536E-003	 -9.20088E-004	  1.02035E-004	
  2.61632E+001	  1.17990E-003	 -2.79958E-004	 -1.68943E-004	  4.06174E-003	  2.51490E-003	  7.69774E-004	  1.81863E-004	
  2.94400E+001	  1.29081E-003	  2.68753E-004	  1.30540E-003	  2.57816E-003	  1.41996E-003	  1.88412E-003	  2.88476E-004	
  3.27168E+001	  1.96094E-003	  1.50564E-003	  1.41042E-003	  3.20202E-003	  1.09388E-003	  2.43567E-003	  2.11800E-003	
  3.59936E+001	  2.33936E-003	  2.03950E-003	  2.49720E-003	  3.60541E-003	  2.12888E-003	  1.08975E-003	  2.67539E-003	
  3.92704E+001	  1.21462E-003	  1.62932E-003	  9.54271E-004	  7.64520E-004	  2.38182E-003	  4.57618E-004	  1.10019E-003	
  4.25472E+001	  9.28292E-004	  1.35205E-003	  4.54177E-004	  5.22688E-004	  6.69274E-004	  2.21514E-003	  3.56425E-004	
  4.58240E+001	  1.05216E-003	 -7.29202E-004	 -7.03488E-004	  3.68040E-003	 -6.25644E-004	  2.51821E-003	  2.17271E-003	
  4.91008E+001	  1.07606E-003	 -8.56391E-004	 -3.33770E-004	  3.11142E-003	  1.50853E-004	  1.69633E-003	  2.68794E-003	
  5.23776E+001	  1.04988E-003	 -1.38955E-003	 -1.45798E-004	  2.43340E-003	  5.76466E-004	  1.75013E-003	  3.07463E-003	
  5.89312E+001	  5.88572E-004	 -4.92403E-005	 -1.34625E-004	  2.14336E-003	  1.18032E-004	  8.22091E-004	  6.31816E-004	
  6.54848E+001	  7.52408E-004	  1.82791E-003	  1.43985E-003	  5.17105E-004	 -1.98390E-003	  2.68274E-003	  3.07527E-005	
  7.20384E+001	  4.83795E-004	  2.64145E-003	 -1.31362E-003	  3.34860E-004	 -2.25944E-003	  2.37776E-003	  1.12176E-003	
  7.85920E+001	  3.23608E-005	  2.53561E-003	 -1.00197E-003	  1.88841E-003	 -1.69783E-003	 -6.85044E-004	 -8.45014E-004	
  8.51456E+001	  6.36808E-004	  3.16423E-003	 -8.34229E-004	  7.37915E-004	  4.29453E-005	 -9.97728E-004	  1.70772E-003	
  9.16992E+001	  4.83427E-004	  1.40555E-003	 -2.68304E-004	 -1.44425E-003	  9.36663E-004	 -9.34246E-004	  3.20515E-003	
  9.82528E+001	  6.07386E-005	  1.35304E-003	 -2.49297E-005	 -2.48503E-003	  1.94232E-003	 -1.70854E-003	  1.28757E-003	
  1.04806E+002	  2.01461E-004	 -3.23678E-004	  8.94663E-004	 -9.82300E-004	  7.36664E-004	 -6.96489E-004	  1.57991E-003	
  1.17914E+002	  5.84497E-004	 -3.47648E-004	  1.40822E-004	  4.92343E-004	  2.23456E-004	  3.55751E-004	  2.64226E-003	
  1.31021E+002	 -3.35795E-004	  8.28391E-005	 -2.01193E-003	 -8.54895E-004	 -7.94028E-004	 -1.80490E-004	  1.74373E-003	
  1.44128E+002	  3.04627E-004	  1.94282E-003	 -1.70744E-003	 -1.74711E-003	  2.52263E-003	 -7.18259E-004	  1.53512E-003	
  1.57235E+002	  4.71992E-004	  3.37306E-003	 -2.44813E-003	 -4.22731E-004	  2.22421E-003	 -7.97114E-005	  1.85254E-004	
  1.70342E+002	  6.96792E-004	  2.66600E-003	 -1.49859E-003	  8.66879E-004	  1.10961E-003	  4.80206E-004	  5.56654E-004	
  1.83450E+002	  6.89439E-004	  1.42237E-003	  1.28892E-004	 -2.42285E-004	  2.82091E-004	  2.09533E-004	  2.33603E-003	
  1.96557E+002	  1.01675E-003	  2.48345E-003	  1.67584E-004	  8.35286E-004	 -3.37930E-004	  7.54809E-004	  2.19732E-003	
  2.09664E+002	  9.13778E-004	  2.35147E-003	  3.68485E-004	  8.12413E-004	 -5.75763E-004	  6.16018E-004	  1.91004E-003	
  2.35878E+002	  4.47322E-004	  1.35650E-003	  8.52622E-004	  3.24046E-004	  2.44913E-004	 -5.18657E-004	  4.24506E-004	
  2.62093E+002	  3.44866E-005	 -3.27738E-004	  2.20527E-004	 -4.15523E-004	  1.71049E-003	  3.43260E-004	 -1.32409E-003	
  2.88307E+002	  4.99277E-006	  4.71839E-005	 -1.38425E-003	 -3.41639E-005	  6.61007E-005	 -5.58033E-004	  1.89312E-003	
  3.14522E+002	 -5.77726E-004	  1.57025E-003	 -3.18668E-004	 -1.98143E-003	 -9.05071E-004	 -1.44739E-003	 -3.84045E-004	
  3.40736E+002	  2.99631E-004	  1.29182E-003	  3.81243E-004	  1.19719E-003	 -7.10613E-004	 -2.58729E-004	 -1.03121E-004	
  3.66950E+002	  9.17579E-005	 -1.44670E-004	  3.59415E-004	 -3.17088E-004	  7.90914E-004	  4.06442E-004	 -5.44465E-004	
  3.93165E+002	 -1.79623E-004	 -1.59462E-004	  1.23609E-003	 -1.47419E-003	 -9.81420E-004	  1.09772E-003	 -7.96490E-004	
  4.19379E+002	 -1.11579E-004	 -3.58762E-004	  1.18088E-003	 -1.72934E-003	 -3.66269E-004	  2.53520E-003	 -1.93117E-003	
  4.71808E+002	 -3.09381E-006	  3.80269E-004	 -3.14325E-004	 -4.24173E-004	 -1.05417E-003	  2.22602E-003	 -8.32189E-004	
  5.24237E+002	 -3.61845E-004	 -4.83103E-004	 -8.63782E-004	  1.20958E-003	 -1.82555E-003	  1.01100E-004	 -3.09318E-004	
  5.76666E+002	 -4.01266E-004	 -5.67964E-004	 -1.48388E-003	 -1.12348E-003	 -7.38022E-004	  1.81650E-003	 -3.10755E-004	
  6.29094E+002	 -3.82730E-004	 -8.33058E-004	 -1.32560E-003	  4.36161E-004	 -9.03256E-004	 -4.90035E-004	  8.19409E-004	
  6.81523E+002	  7.31902E-004	  8.74878E-005	  1.52151E-003	  1.96805E-003	 -5.06903E-005	  3.48329E-004	  5.16732E-004	
